Time(s) Force[Z](Revolution:2)-ArfadaCaso3.iaa(N) Force[Y](Revolution:2)-ArfadaCaso3.iaa(N) Force[X](Revolution:2)-ArfadaCaso3.iaa(N) Force(Revolution:2)-ArfadaCaso3.iaa(N) Moment[Z](Revolution:2)-ArfadaCaso3.iaa(N.mm) Moment[Y](Revolution:2)-ArfadaCaso3.iaa(N.mm) Moment[X](Revolution:2)-ArfadaCaso3.iaa(N.mm) Moment(Revolution:2)-ArfadaCaso3.iaa(N.mm) 
0.00000 20.49780 -2924.75813 -2953.98794 4157.00000 590782.77013 -42830.20752 46506.72014 594156.00000 
0.00635 20.87625 -2978.71654 -3008.55267 4233.74000 601695.71825 -43621.38801 47364.80701 605131.00000 
0.01270 21.25527 -3032.61312 -3063.35320 4310.61000 612655.82433 -44415.98741 48222.11109 616154.00000 
0.01905 21.63528 -3086.35780 -3118.61620 4387.69000 623708.42561 -45217.29258 49077.41207 627268.00000 
0.02540 22.01669 -3139.84590 -3174.57493 4465.09000 634900.16888 -46028.68534 49929.27140 638522.00000 
0.03175 22.40058 -3193.06254 -3231.57512 4543.04000 646300.20181 -46855.17884 50777.69372 649983.00000 
0.03810 22.78600 -3245.68566 -3289.67364 4621.36000 657919.89645 -47697.59752 51617.81431 661663.00000 
0.04445 23.18040 -3298.58370 -3350.15784 4701.57000 670016.72423 -48574.60790 52463.71996 673821.00000 
0.05080 23.55956 -3348.10341 -3409.74284 4778.78000 681933.70678 -49438.57946 53257.59282 685795.00000 
0.05715 23.56446 -3343.14730 -3416.55663 4780.17000 683296.43965 -49537.37559 53186.71581 687151.00000 
0.06350 23.58968 -3339.80175 -3427.65681 4785.78000 685516.44594 -49698.32325 53143.25521 689367.00000 
0.06985 23.61415 -3335.06514 -3439.99059 4791.32000 687983.16567 -49877.15724 53079.47855 691828.00000 
0.07620 23.64364 -3329.73252 -3454.38708 4797.96000 690862.42360 -50085.89977 53008.06200 694701.00000 
0.08255 23.67645 -3323.54800 -3470.59886 4805.37000 694104.73450 -50320.96318 52924.96161 697936.00000 
0.08890 23.71299 -3316.54211 -3488.67574 4813.61000 697720.06124 -50583.06981 52830.69631 701543.00000 
0.09525 23.75305 -3308.66133 -3508.58215 4822.65000 701701.28788 -50871.70375 52724.45077 705516.00000 
0.10160 23.79659 -3299.87135 -3530.30417 4832.47000 706045.63282 -51186.66336 52605.71849 709851.00000 
0.10795 23.84351 -3290.12829 -3553.81947 4843.05000 710748.62855 -51527.62475 52473.84505 714543.00000 
0.11430 23.89373 -3279.38695 -3579.10574 4854.37000 715805.81551 -51894.26463 52328.15819 719590.00000 
0.12065 23.94716 -3267.59862 -3606.13828 4866.42000 721212.25310 -52286.22482 52167.93317 724984.00000 
0.12700 24.00371 -3254.71180 -3634.89064 4879.16000 726962.64979 -52703.12172 51992.40456 730723.00000 
0.13335 24.06327 -3240.67213 -3665.33433 4892.57000 733051.31005 -53144.54240 51800.76466 736798.00000 
0.13970 24.12576 -3225.42251 -3697.43886 4906.63000 739472.13350 -53610.04461 51592.16567 743206.00000 
0.14605 24.19106 -3208.90320 -3731.17158 4921.31000 746218.59340 -54099.15521 51365.72070 749938.00000 
0.15240 24.25907 -3191.05178 -3766.49756 4936.59000 753283.70230 -54611.36760 51120.50383 756989.00000 
0.15875 24.32969 -3171.80373 -3803.37998 4952.44000 760660.09766 -55146.14804 50855.55853 764350.00000 
0.16510 24.40280 -3151.08978 -3841.77682 4968.82000 768339.37622 -55702.88732 50569.85613 772014.00000 
0.17145 24.47835 -3128.84941 -3881.65705 4985.74000 776315.32976 -56281.13537 50262.51083 779974.00000 
0.17780 24.55589 -3104.96773 -3922.92194 5003.07000 784568.21351 -56879.46071 49931.76706 788210.00000 
0.18415 24.63683 -3079.56081 -3965.76611 5021.12000 793136.95222 -57500.68540 49579.58767 796763.00000 
0.19050 24.71439 -3051.72465 -4009.06293 5038.47000 801796.22192 -58128.47360 49191.50958 805404.00000 
0.19685 24.81712 -3024.89905 -4057.42312 5060.96000 811468.16346 -58829.68006 48823.11949 815062.00000 
0.20320 24.81948 -2983.81528 -4090.21354 5062.97000 818026.15143 -59305.12636 48227.91324 821590.00000 
0.20955 24.43402 -2894.94882 -4059.20455 4985.83000 811824.25523 -58855.48758 46862.29570 815303.00000 
0.21590 24.09907 -2811.66032 -4036.03763 4918.90000 807190.77516 -58519.55801 45587.66248 810592.00000 
0.22225 23.73802 -2725.10469 -4007.78181 4846.55000 801539.51645 -58109.83963 44260.43544 804861.00000 
0.22860 23.37301 -2638.15340 -3977.91889 4773.28000 795566.84055 -57676.81844 42926.68143 798809.00000 
0.23495 22.99707 -2550.27866 -3945.07322 4697.66000 788997.61634 -57200.54755 41577.35228 792160.00000 
0.24130 22.61196 -2461.95653 -3909.35914 4620.05000 781854.71402 -56682.68510 40219.70093 784938.00000 
0.24765 22.21701 -2373.39092 -3870.50214 4540.29000 774083.23033 -56119.25066 38856.55443 777087.00000 
0.25400 21.81243 -2284.87534 -3828.39050 4458.44000 765660.82354 -55508.62449 37492.20588 768585.00000 
0.26035 21.39828 -2196.68469 -3782.91165 4374.51000 756564.97854 -54849.17429 36130.65437 759411.00000 
0.26670 20.97482 -2109.10668 -3734.00721 4288.54000 746784.01851 -54140.05354 34776.12320 749551.00000 
0.27305 20.54217 -2022.40659 -3681.61624 4200.58000 736305.75779 -53380.37879 33432.48473 738995.00000 
0.27940 20.10137 -1936.92638 -3625.86019 4110.83000 725154.48564 -52571.91104 32104.90466 727766.00000 
0.28575 19.65006 -1852.66828 -3566.26667 4018.83000 713235.72513 -51707.80079 30792.94234 715770.00000 
0.29210 19.20021 -1770.96114 -3504.98318 3927.03000 700978.97259 -50819.18633 29518.25804 703438.00000 
0.29845 18.70590 -1687.80548 -3433.60602 3826.05000 686703.49251 -49784.21505 28213.67877 689084.00000 
0.30480 18.36709 -1621.23695 -3388.91434 3756.79000 677765.11315 -49136.18179 27180.71279 680087.00000 
0.31115 18.41000 -1589.94766 -3413.31577 3765.50000 682645.35896 -49489.99392 26735.63560 684959.00000 
0.31750 18.38721 -1554.01397 -3424.57488 3760.72000 684897.14690 -49653.24418 26210.07541 687195.00000 
0.32385 18.38445 -1520.91083 -3438.59558 3759.98000 687701.25503 -49856.53787 25729.56241 689986.00000 
0.33020 18.37731 -1488.57973 -3450.88110 3758.30000 690158.32968 -50034.67208 25259.36574 692431.00000 
0.33655 18.37257 -1457.60478 -3462.73786 3757.06000 692529.65618 -50206.58991 24809.31164 694790.00000 
0.34290 18.36824 -1427.84211 -3473.83143 3755.87000 694748.34730 -50367.44201 24376.91680 696998.00000 
0.34925 18.36479 -1399.34690 -3484.28659 3754.83000 696839.35980 -50519.03773 23963.07488 699079.00000 
0.35560 18.36201 -1372.11966 -3494.09833 3753.90000 698801.68884 -50661.30417 23567.75116 701032.00000 
0.36195 18.35989 -1346.17527 -3503.29610 3753.08000 700641.22699 -50794.66854 23191.15744 702863.00000 
0.36829 18.35834 -1321.52422 -3511.89821 3752.36000 702361.63547 -50919.39625 22833.43178 704575.00000 
0.37465 18.35732 -1298.17762 -3519.92441 3751.73000 703966.86378 -51035.77361 22494.72454 706173.00000 
0.38099 18.35677 -1276.14583 -3527.39244 3751.18000 705460.45883 -51144.05775 22175.17475 707659.00000 
0.38734 18.35663 -1255.43879 -3534.31893 3750.72000 706845.74665 -51244.48980 21874.91575 709038.00000 
0.39370 18.35686 -1236.06592 -3540.71932 3750.32000 708125.81604 -51337.29368 21594.07417 710313.00000 
0.40004 18.35741 -1218.03598 -3546.60738 3749.98000 709303.42061 -51422.66900 21332.76665 711485.00000 
0.40640 18.35823 -1201.35775 -3551.99737 3749.70000 710381.41253 -51500.82254 21091.11247 712558.00000 
0.41274 18.35926 -1186.03726 -3556.89593 3749.47000 711361.11977 -51571.85055 20869.18496 713533.00000 
0.41909 18.36054 -1172.08805 -3561.33286 3749.30000 712248.50041 -51636.18500 20667.19186 714417.00000 
0.42545 18.36168 -1159.49299 -3565.24528 3749.10000 713030.98061 -51692.91425 20484.80220 715196.00000 
0.43179 18.36402 -1148.34618 -3568.91368 3749.16000 713764.65896 -51746.10546 20323.65364 715926.00000 
0.43815 18.36229 -1138.32513 -3571.32318 3748.40000 714246.55619 -51781.04265 20178.01122 716405.00000 
0.44449 18.37618 -1130.65376 -3576.31627 3750.83000 715245.17078 -51853.44174 20069.56168 717403.00000 
0.45084 18.33174 -1120.80047 -3569.51744 3741.39000 713885.40380 -51754.85894 19917.80785 716036.00000 
0.45719 18.55063 -1128.37862 -3613.54501 3785.67000 722690.91803 -52393.25581 20071.47387 724866.00000 
0.46354 19.09678 -1156.98069 -3720.92500 3896.70000 744166.91629 -53950.25876 20595.43752 746404.00000 
0.46989 19.57743 -1182.59144 -3815.23380 3994.36000 763028.67695 -55317.73035 21062.92814 765321.00000 
0.47624 20.07668 -1210.20976 -3912.87399 4095.80000 782556.71647 -56733.50696 21563.24473 784907.00000 
0.48259 20.56888 -1238.16768 -4008.88863 4195.79000 801759.64553 -58125.71318 22067.07549 804167.00000 
0.48894 21.07139 -1267.37161 -4106.69976 4297.87000 821321.87150 -59543.96832 22591.03589 823787.00000 
0.49529 21.53989 -1294.99914 -4197.71859 4392.99000 839525.64028 -60863.73574 23085.33577 842046.00000 
0.50164 22.13419 -1330.47433 -4313.11920 4513.72000 862605.76403 -62537.03735 23718.58478 865195.00000 
0.50799 22.13619 -1330.47595 -4313.11897 4513.72000 862605.71676 -62537.03392 23719.00951 865195.00000 
0.51434 21.54570 -1295.00391 -4197.71798 4392.99000 839525.51752 -60863.72685 23086.56688 842045.00000 
0.52069 21.08080 -1267.37943 -4106.69886 4297.87000 821321.69170 -59543.95528 22593.03092 823787.00000 
0.52704 20.58163 -1238.17847 -4008.88754 4195.79000 801759.42733 -58125.69736 22069.78180 804167.00000 
0.53339 20.09253 -1210.22343 -3912.87278 4095.80000 782556.47444 -56733.48941 21566.61335 784907.00000 
0.53974 19.59613 -1182.60791 -3815.23254 3994.36000 763028.42498 -55317.71208 21066.90567 765321.00000 
0.54609 19.11808 -1156.99987 -3720.92374 3896.70000 744166.66365 -53950.24044 20599.97626 746404.00000 
0.55244 18.57416 -1128.40041 -3613.54385 3785.67000 722690.68465 -52393.23889 20076.49636 724865.00000 
0.55879 18.35787 -1120.82503 -3569.51613 3741.39000 713885.14261 -51754.84000 19923.38919 716036.00000 
0.56514 18.40533 -1130.68133 -3576.31450 3750.84000 715244.81872 -51853.41621 20075.79269 717403.00000 
0.57149 18.39428 -1138.35569 -3571.32089 3748.40000 714246.09877 -51781.00949 20184.85307 716405.00000 
0.57784 18.39881 -1148.37979 -3568.91071 3749.17000 713764.06521 -51746.06241 20331.09915 715926.00000 
0.58419 18.39916 -1159.52970 -3565.24148 3749.11000 713030.22097 -51692.85918 20492.83224 715195.00000 
0.59054 18.40063 -1172.12789 -3561.32806 3749.30000 712247.54134 -51636.11546 20675.78815 714416.00000 
0.59689 18.40184 -1186.08027 -3556.88996 3749.48000 711359.92546 -51571.76397 20878.32613 713532.00000 
0.60324 18.40319 -1201.40396 -3551.99003 3749.71000 710379.94449 -51500.71610 21100.77503 712557.00000 
0.60959 18.40461 -1218.08542 -3546.59846 3749.99000 709301.63795 -51422.53976 21342.92456 711483.00000 
0.61594 18.40617 -1236.11860 -3540.70862 3750.33000 708123.67573 -51337.13851 21604.69882 710311.00000 
0.62229 18.40788 -1255.49472 -3534.30622 3750.72000 706843.20372 -51244.30544 21885.97583 709036.00000 
0.62864 18.40978 -1276.20501 -3527.37748 3751.19000 705457.46678 -51143.84083 22186.63617 707657.00000 
0.63499 18.41192 -1298.24003 -3519.90697 3751.73000 703963.37508 -51035.52068 22506.55039 706170.00000 
0.64134 18.41433 -1321.58983 -3511.87804 3752.36000 702357.60205 -50919.10382 22845.58231 704571.00000 
0.64769 18.41706 -1346.24403 -3503.27297 3753.08000 700636.60093 -50794.33316 23203.59012 702859.00000 
0.65404 18.42015 -1372.19150 -3494.07200 3753.90000 698796.42325 -50660.92242 23580.42067 701027.00000 
0.66039 18.42366 -1399.42174 -3484.25684 3754.83000 696833.40957 -50518.60633 23975.93337 699074.00000 
0.66674 18.42759 -1427.91984 -3473.79804 3755.87000 694741.67034 -50366.95793 24389.91397 696992.00000 
0.67309 18.43215 -1457.68527 -3462.70065 3757.06000 692522.21440 -50206.05038 24822.39526 694783.00000 
0.67944 18.43686 -1488.66284 -3450.83990 3758.29000 690150.09082 -50034.07477 25272.48130 692423.00000 
0.68579 18.44372 -1520.99638 -3438.55027 3759.97000 687692.19205 -49855.88080 25742.65636 689977.00000 
0.69214 18.44589 -1554.10176 -3424.52539 3760.71000 684887.24772 -49652.52650 26223.08523 687185.00000 
0.69849 18.46795 -1590.03756 -3413.26195 3765.49000 682634.59539 -49489.21356 26748.53062 684949.00000 
0.70484 18.42361 -1621.32847 -3388.85664 3756.78000 677753.57216 -49135.34506 27193.34243 680076.00000 
0.71119 18.76365 -1687.90022 -3433.54171 3826.04000 686690.63129 -49783.28261 28226.60362 689071.00000 
0.71754 19.26018 -1771.05981 -3504.91067 3927.01000 700964.47207 -50818.13504 29531.68396 703424.00000 
0.72389 19.71171 -1852.77068 -3566.18570 4018.81000 713219.52998 -51706.62664 30806.75624 715755.00000 
0.73024 20.16447 -1937.03252 -3625.77010 4110.80000 725136.46738 -52570.60472 32119.06359 727749.00000 
0.73659 20.60636 -2022.51638 -3681.51648 4200.54000 736285.80644 -53378.93232 33446.91444 738976.00000 
0.74294 21.03970 -2109.22005 -3733.89720 4288.50000 746762.01747 -54138.45846 34790.74407 749530.00000 
0.74929 21.46341 -2196.80152 -3782.79083 4374.46000 756540.81320 -54847.42231 36145.37300 759387.00000 
0.75564 21.87727 -2284.99549 -3828.25829 4458.39000 765634.38081 -55506.70739 37506.91581 768560.00000 
0.76199 22.28098 -2373.51421 -3870.35800 4540.24000 774054.40148 -56117.16056 38871.13450 777059.00000 
0.76834 22.67437 -2462.08274 -3909.20256 4619.98000 781823.39734 -56680.41464 40234.01451 784907.00000 
0.77469 23.05720 -2550.40754 -3944.90375 4697.59000 788963.72111 -57198.09015 41591.24628 792127.00000 
0.78104 23.43002 -2638.28464 -3977.73614 4773.20000 795530.29020 -57674.16854 42939.98657 798773.00000 
0.78739 23.79100 -2725.23794 -4007.58552 4846.47000 801500.25864 -58106.99344 44272.96373 804822.00000 
0.79374 24.14707 -2811.79523 -4035.82760 4918.81000 807148.76921 -58516.51258 45599.21733 810551.00000 
0.80009 24.47587 -2895.08490 -4058.98103 4985.72000 811779.55153 -58852.24656 46872.63962 815259.00000 
0.80644 24.85443 -2983.95239 -4089.97589 5062.85000 817978.62020 -59301.68035 48236.89096 821543.00000 
0.81279 24.84138 -3025.03426 -4057.17942 5060.85000 811419.42398 -58826.14645 48829.93239 815013.00000 
0.81914 24.72688 -3051.85718 -4008.81655 5038.36000 801746.94475 -58124.90100 49195.92776 805355.00000 
0.82549 24.63739 -3079.69068 -3965.51849 5021.00000 793087.42953 -57497.09501 49581.58272 796713.00000 
0.83184 24.54434 -3105.09484 -3922.67530 5002.96000 784518.88502 -56875.88440 49931.29910 788161.00000 
0.83819 24.45471 -3128.97379 -3881.41358 4985.62000 776266.63505 -56277.60500 50259.58629 779925.00000 
0.84454 24.36728 -3151.21156 -3841.53888 4968.72000 768291.78698 -55699.43711 50564.51848 771966.00000 
0.85089 24.28272 -3171.92310 -3803.14998 4952.34000 760614.09848 -55142.81311 50847.89498 764304.00000 
0.85724 24.20129 -3191.16906 -3766.27796 4936.50000 753239.78371 -54608.18351 51110.64717 756944.00000 
0.86359 24.12333 -3209.01876 -3730.96481 4921.23000 746177.23979 -54096.15708 51353.85114 749896.00000 
0.86994 24.04920 -3225.53682 -3697.24725 4906.56000 739433.81116 -53607.26625 51578.51111 743167.00000 
0.87629 23.97921 -3240.78571 -3665.16006 4892.51000 733016.45415 -53142.01535 51785.59956 736763.00000 
0.88264 23.91369 -3254.82526 -3634.73565 4879.11000 726931.65112 -52700.87432 51976.04718 730690.00000 
0.88899 23.85294 -3267.71260 -3606.00424 4866.39000 721185.44509 -52284.28125 52150.74095 724956.00000 
0.89534 23.79719 -3279.50214 -3578.99398 4854.37000 715783.46253 -51892.64405 52310.52155 719566.00000 
0.90169 23.74669 -3290.24539 -3553.73090 4843.07000 710730.91475 -51526.34051 52456.17905 714524.00000 
0.90804 23.70158 -3299.99109 -3530.23927 4832.50000 706032.65307 -51185.72233 52588.45325 709836.00000 
0.91439 23.66197 -3308.78443 -3508.54092 4822.70000 701693.04165 -50871.10591 52708.02040 705506.00000 
0.92074 23.62793 -3316.66925 -3488.65768 4813.69000 697716.44894 -50582.80793 52815.52679 701539.00000 
0.92709 23.59938 -3323.67986 -3470.60297 4805.46000 694105.55707 -50321.02283 52911.45814 697936.00000 
0.93344 23.57636 -3329.86972 -3454.41188 4798.08000 690867.38499 -50086.25948 52996.59633 694705.00000 
0.93979 23.55827 -3335.20823 -3440.03416 4791.45000 687991.88105 -49877.78911 53070.37687 691836.00000 
0.94614 23.54650 -3339.95123 -3427.71680 4785.92000 685528.44390 -49699.19311 53136.78693 689379.00000 
0.95249 23.53498 -3343.30356 -3416.63044 4780.33000 683311.20152 -49538.44584 53183.08457 687166.00000 
0.95884 23.54439 -3348.26683 -3409.82722 4778.95000 681950.58235 -49439.80295 53256.92812 685811.00000 
0.96519 23.17993 -3298.75267 -3350.25778 4701.76000 670036.71278 -48576.05708 52466.07703 673841.00000 
0.97154 22.80003 -3245.85996 -3289.78614 4621.56000 657942.39700 -47699.22881 51623.14940 661686.00000 
0.97789 22.42857 -3193.24184 -3231.69679 4543.25000 646324.53627 -46856.94309 50785.89060 650008.00000 
0.98424 22.05778 -3140.02962 -3174.70266 4465.31000 634925.71434 -46030.53739 49940.15470 638548.00000 
0.99059 21.68845 -3086.54517 -3118.74706 4387.92000 623734.59704 -45219.19001 49090.76150 627295.00000 
0.99694 21.31931 -3032.80321 -3063.48454 4310.83000 612682.09271 -44417.89187 48237.67585 616181.00000 
1.00329 20.94991 -2978.90833 -3008.68216 4233.97000 601721.61485 -43623.26552 47382.31972 605159.00000 
1.00964 20.57981 -2924.95196 -2954.11502 4157.23000 590808.18596 -42832.05014 46525.93308 594183.00000 
