Time(s) Force[Z](Revolution:2)-CabeceoCaso3.iaa(N) Force[Y](Revolution:2)-CabeceoCaso3.iaa(N) Force[X](Revolution:2)-CabeceoCaso3.iaa(N) Force(Revolution:2)-CabeceoCaso3.iaa(N) Moment[Z](Revolution:2)-CabeceoCaso3.iaa(N.mm) Moment[Y](Revolution:2)-CabeceoCaso3.iaa(N.mm) Moment[X](Revolution:2)-CabeceoCaso3.iaa(N.mm) Moment(Revolution:2)-CabeceoCaso3.iaa(N.mm) 
0.00000 22.23612 -1340.56364 -4345.91577 4548.03000 869165.09664 -63012.57782 23885.26565 871774.00000 
0.01532 23.42454 -1412.17910 -4578.12491 4791.04000 915606.90705 -66379.61746 25161.37569 918355.00000 
0.03064 24.60964 -1483.37627 -4809.64834 5033.26000 961911.59152 -69736.70641 26430.75304 964798.00000 
0.04596 25.78802 -1553.69772 -5039.78862 5273.91000 1007939.64809 -73073.73983 27686.09040 1010960.00000 
0.06128 26.95570 -1622.61015 -5267.72483 5512.03000 1053526.88963 -76378.81416 28918.85810 1056690.00000 
0.07660 28.11013 -1689.62886 -5492.91021 5746.97000 1098563.96662 -79644.00155 30121.51603 1101860.00000 
0.09192 29.24263 -1753.86835 -5713.60211 5976.80000 1142702.34736 -82844.03345 31279.49089 1146130.00000 
0.10724 30.36657 -1815.73385 -5932.35998 6204.09000 1186453.92047 -86016.02178 32401.32978 1190010.00000 
0.12257 31.41230 -1870.64849 -6135.53516 6414.44000 1227088.95469 -88962.06105 33406.74092 1230760.00000 
0.13789 31.24839 -1851.24091 -6102.18610 6376.89000 1220419.14305 -88478.49964 33092.55426 1224070.00000 
0.15321 31.09970 -1830.75255 -6071.57813 6341.66000 1214297.54830 -88034.68392 32765.73841 1217930.00000 
0.16853 30.91108 -1805.99892 -6032.98182 6297.58000 1206578.28555 -87475.03726 32369.09168 1210180.00000 
0.18385 30.69749 -1777.96413 -5989.35803 6247.76000 1197853.52531 -86842.49202 31919.87579 1201420.00000 
0.19917 30.45516 -1746.54142 -5940.01344 6191.53000 1187984.60698 -86126.99532 31415.78811 1191520.00000 
0.21449 30.18537 -1711.93061 -5885.24026 6129.25000 1177029.96863 -85332.78391 30859.97966 1180520.00000 
0.22981 29.88804 -1674.26550 -5825.07298 6060.98000 1164996.51191 -84460.35817 30254.37964 1168450.00000 
0.24513 29.56352 -1633.71124 -5759.61905 5986.91000 1151905.72472 -83511.27596 29601.44731 1155310.00000 
0.26045 29.21204 -1590.43706 -5688.96849 5907.17000 1137775.61200 -82486.84267 28903.68531 1141130.00000 
0.27577 28.83388 -1544.62204 -5613.21617 5821.93000 1122625.14606 -81388.43379 28163.74713 1125920.00000 
0.29109 28.42934 -1496.45221 -5532.45399 5731.34000 1106472.70939 -80217.38204 27384.38787 1109710.00000 
0.30642 27.99871 -1446.11995 -5446.77124 5635.54000 1089336.15829 -78974.98202 26568.45744 1092520.00000 
0.32174 27.54231 -1393.82299 -5356.25288 5534.70000 1071232.48706 -77662.46582 25718.88416 1074350.00000 
0.33706 27.06044 -1339.76346 -5260.97837 5428.96000 1052177.58434 -76280.98537 24838.66135 1055230.00000 
0.35238 26.55342 -1284.14735 -5161.02118 5318.45000 1032186.14751 -74831.60624 23930.83858 1035170.00000 
0.36770 26.02155 -1227.18323 -5056.44549 5203.30000 1011271.01060 -73315.25890 22998.50003 1014190.00000 
0.38302 25.46515 -1169.08388 -4947.31443 5083.63000 989444.79829 -71732.85865 22044.79700 992287.00000 
0.39834 24.88441 -1110.05784 -4833.65556 4959.54000 966713.02587 -70084.80535 21072.78978 969479.00000 
0.41366 24.28001 -1050.33807 -4715.58618 4831.21000 943099.15333 -68372.79987 20085.99096 945788.00000 
0.42898 23.65070 -990.07707 -4592.84423 4698.41000 918550.76730 -66593.04225 19086.36234 921159.00000 
0.44430 23.00228 -929.72365 -4466.53300 4562.33000 893288.52475 -64761.53010 18081.57342 895816.00000 
0.45962 22.31414 -868.66713 -4332.62054 4418.90000 866506.03774 -62819.80035 17058.64765 868948.00000 
0.47494 21.66395 -810.10337 -4206.15746 4283.51000 841213.42814 -60986.08677 16079.45644 843574.00000 
0.49027 20.75381 -743.28404 -4029.24693 4097.28000 805831.32937 -58420.88549 14928.57020 808084.00000 
0.50559 18.76894 -641.72444 -3643.57474 3699.70000 728696.89841 -52828.64085 13059.00519 730726.00000 
0.52091 16.89476 -549.62013 -3279.34782 3325.13000 655851.52456 -47547.35291 11348.67953 657671.00000 
0.53623 14.97383 -461.86566 -2905.95265 2942.47000 581172.49985 -42133.12543 9692.07664 582778.00000 
0.55155 13.05058 -380.24452 -2532.00277 2560.43000 506382.53638 -36710.85501 8123.94582 507777.00000 
0.56687 11.11520 -304.69000 -2155.58256 2177.04000 431098.50746 -31252.76498 6641.35357 432281.00000 
0.58219 9.17223 -235.51648 -1777.58440 1793.14000 355498.88927 -25771.79485 5249.76843 356470.00000 
0.59751 7.22227 -172.85636 -1398.14673 1408.81000 279611.37024 -20269.95202 3951.23005 280373.00000 
0.61283 5.26696 -116.80653 -1017.62279 1024.32000 203506.59937 -14752.35855 2747.47086 204059.00000 
0.62815 3.30764 -67.39288 -636.31808 639.88500 127245.67504 -9223.44406 1639.13357 127590.00000 
0.64347 1.34600 -24.58685 -254.61717 255.80500 50905.51176 -3688.78484 626.14397 51042.80000 
0.65879 -0.61691 11.71398 127.21962 127.75900 -25461.82720 1847.84453 -292.77669 25530.50000 
0.67412 -2.57698 41.61939 508.32955 510.03700 -101683.79263 7373.93426 -1118.39584 101957.00000 
0.68944 -4.54078 65.46448 889.92454 892.34100 -178002.76965 12907.05727 -1856.88554 178480.00000 
0.70476 -6.47374 83.06802 1265.24237 1267.98000 -253066.31587 18349.16153 -2498.70550 253743.00000 
0.72008 -8.49421 96.21167 1657.17646 1659.99000 -331453.11165 24032.20130 -3093.36020 332338.00000 
0.73540 -10.11420 100.09609 1971.12163 1973.69000 -394242.12499 28584.40207 -3473.66091 395292.00000 
0.75072 -10.74421 91.74090 2093.02796 2095.07000 -418623.36874 30352.04008 -3478.49150 419737.00000 
0.76604 -11.50863 83.31801 2240.77149 2242.35000 -448172.05197 32494.31738 -3509.22351 449362.00000 
0.78136 -12.21107 73.26552 2376.31473 2377.48000 -475280.67910 34459.69067 -3503.93265 476541.00000 
0.79668 -12.90367 62.17151 2509.73794 2510.54000 -501965.30148 36394.32364 -3481.57132 503295.00000 
0.81200 -13.57165 50.12379 2638.17048 2638.68000 -527651.78880 38256.59186 -3440.45695 529048.00000 
0.82732 -14.21828 37.31445 2762.22914 2762.52000 -552463.50054 40055.43889 -3384.03016 553924.00000 
0.84264 -14.84202 23.90504 2881.59363 2881.73000 -576336.37734 41786.22045 -3314.32634 577859.00000 
0.85796 -15.44270 10.05569 2996.19829 2996.25000 -599257.29186 43447.98480 -3233.63183 600839.00000 
0.87328 -16.01985 -4.08102 3105.91193 3105.96000 -621200.00071 45038.82930 -3144.06591 622839.00000 
0.88861 -16.57317 -18.35892 3210.62453 3210.72000 -642142.50255 46557.15887 -3047.68693 643835.00000 
0.90393 -17.10239 -32.63856 3310.22434 3310.43000 -662062.44731 48001.35313 -2946.46393 663807.00000 
0.91925 -17.60731 -46.78722 3404.60432 3404.97000 -680938.42672 49369.85997 -2842.27991 682732.00000 
0.93457 -18.08773 -60.67899 3493.66076 3494.23000 -698749.69917 50661.17565 -2736.92363 700589.00000 
0.94989 -18.54346 -74.19485 3577.29351 3578.11000 -715476.23637 51873.84811 -2632.07935 717359.00000 
0.96521 -18.97420 -87.22275 3655.40762 3656.50000 -731099.04425 53006.50028 -2529.31276 733022.00000 
0.98053 -19.37944 -99.65761 3727.90803 3729.29000 -745599.11381 54057.75403 -2430.04694 747560.00000 
0.99585 -19.75847 -111.40199 3794.72092 3796.41000 -758961.67953 55026.53884 -2335.55151 760957.00000 
1.01117 -20.10984 -122.36406 3855.71576 3857.71000 -771160.63554 55910.96205 -2246.86732 773188.00000 
1.02649 -20.43277 -132.46704 3910.99902 3913.30000 -782217.27809 56712.56764 -2164.95416 784273.00000 
1.04181 -20.72142 -141.61266 3959.81728 3962.40000 -791980.92144 57420.43089 -2090.06733 794063.00000 
1.05713 -20.98634 -149.82760 4004.66271 4007.52000 -800950.00024 58070.68831 -2023.92889 803055.00000 
1.07245 -21.17449 -156.69179 4035.92113 4039.02000 -807201.67682 58523.93420 -1962.02505 809323.00000 
1.08778 -21.46942 -163.55996 4089.27071 4092.60000 -817871.58747 59297.50210 -1921.41763 820021.00000 
1.10310 -21.05794 -164.11810 4009.50305 4012.92000 -801918.05097 58140.87052 -1831.02640 804025.00000 
1.11842 -19.77830 -156.82383 3765.94266 3769.26000 -753205.97064 54609.24502 -1680.86355 755185.00000 
1.13374 -18.62536 -149.62731 3548.93859 3552.14000 -709805.15310 51462.68608 -1554.62235 711670.00000 
1.14906 -17.39344 -141.10503 3318.72417 3321.77000 -663762.26670 48124.57727 -1431.81092 665506.00000 
1.16438 -16.15464 -132.00992 3088.40079 3091.26000 -617697.58923 44784.88861 -1315.92982 619320.00000 
1.17970 -14.87595 -122.20745 2850.37769 2853.04000 -570092.96890 41333.55468 -1202.32624 571591.00000 
1.19502 -13.67801 -112.77209 2626.83450 2629.29000 -525384.33066 38092.17860 -1099.55185 526765.00000 
1.21034 -12.16352 -100.54822 2341.47386 2343.66000 -468312.20241 33954.44989 -973.89951 469543.00000 
1.22566 -12.14909 -100.57698 2341.46874 2343.66000 -468311.17756 33954.37559 -970.59597 469541.00000 
1.24098 -13.63566 -112.85505 2626.81967 2629.28000 -525381.36377 38091.96337 -1089.87806 526762.00000 
1.25630 -14.80897 -122.33717 2850.35429 2853.02000 -570088.28977 41333.21496 -1187.04871 571586.00000 
1.27163 -16.06605 -132.18300 3088.36953 3091.24000 -617691.33748 44784.43536 -1295.70216 619314.00000 
1.28695 -17.28876 -141.28866 3318.68948 3321.74000 -663755.33005 48124.07434 -1408.21218 665499.00000 
1.30227 -18.51413 -149.80348 3548.90291 3552.11000 -709798.01659 51462.16868 -1529.82204 711663.00000 
1.31759 -19.67122 -156.97734 3765.90774 3769.23000 -753198.98559 54608.73860 -1657.22022 755178.00000 
1.33291 -20.96554 -164.23828 4009.46965 4012.89000 -801911.37123 58140.38624 -1810.80356 804018.00000 
1.34823 -21.40153 -163.64100 4089.23825 4092.57000 -817865.09616 59297.03148 -1906.66523 820014.00000 
1.36355 -21.13873 -156.73268 4035.88782 4038.99000 -807195.01527 58523.45124 -1954.27840 809316.00000 
1.37887 -20.98710 -149.83133 4004.62583 4007.48000 -800942.62496 58070.15360 -2024.02748 803048.00000 
1.39419 -20.76037 -141.58476 3959.77329 3962.36000 -791972.12482 57419.79313 -2098.26091 794054.00000 
1.40951 -20.50893 -132.41439 3910.94392 3913.24000 -782206.25864 56711.76873 -2180.95026 784262.00000 
1.42483 -20.22021 -122.29380 3855.64540 3857.64000 -771146.56394 55909.94186 -2269.96066 773174.00000 
1.44015 -19.89864 -111.32082 3794.63139 3796.32000 -758943.77251 55025.24058 -2364.76225 760940.00000 
1.45547 -19.54423 -99.57132 3727.79603 3729.18000 -745576.71371 54056.13002 -2464.25526 747538.00000 
1.47080 -19.15821 -87.13606 3655.27093 3656.36000 -731071.70533 53004.51821 -2567.37105 732995.00000 
1.48612 -18.74150 -74.11138 3577.13141 3577.95000 -715443.81479 51871.49754 -2672.89622 717327.00000 
1.50144 -18.29508 -60.60136 3493.47445 3494.05000 -698712.43820 50658.47423 -2779.51922 700552.00000 
1.51676 -17.81991 -46.71720 3404.39730 3404.76000 -680897.02428 49366.85830 -2885.81630 682690.00000 
1.53208 -17.31691 -32.57724 3310.00255 3310.21000 -662018.08931 47998.13717 -2990.25616 663763.00000 
1.54740 -16.78696 -18.30684 3210.39625 3210.49000 -642096.84713 46553.84885 -3091.20027 643790.00000 
1.56272 -16.23094 -4.03825 3105.68743 3105.73000 -621155.10055 45035.57404 -3186.90439 622794.00000 
1.57804 -15.64970 10.08943 2995.98914 2996.05000 -599215.46000 43444.95199 -3275.52178 600797.00000 
1.59336 -15.04404 23.93034 2881.41176 2881.55000 -576300.00425 41783.58340 -3355.09784 577823.00000 
1.60868 -14.41483 37.33213 2762.08582 2762.38000 -552434.83673 40053.36077 -3423.59812 553896.00000 
1.62400 -13.76258 50.13486 2638.07523 2638.59000 -527632.73874 38255.21073 -3478.80322 529029.00000 
1.63932 -13.08906 62.17703 2509.69764 2510.50000 -501957.23975 36393.73916 -3518.72811 503287.00000 
1.65464 -12.39118 73.26655 2376.33293 2377.49000 -475284.31979 34459.95462 -3539.96835 476545.00000 
1.66997 -11.68384 83.31550 2240.84815 2242.43000 -448187.38446 32495.42899 -3544.22883 449378.00000 
1.68529 -10.91500 91.73560 2093.15943 2095.20000 -418649.66228 30353.94636 -3512.57351 419763.00000 
1.70061 -10.28104 100.08844 1971.30106 1973.87000 -394278.00933 28587.00368 -3506.91704 395329.00000 
1.71593 -8.65794 96.20168 1657.39420 1660.21000 -331496.65910 24035.35849 -3125.96182 332382.00000 
1.73125 -6.63502 83.05529 1265.48721 1268.23000 -253115.28314 18352.71165 -2530.77735 253792.00000 
1.74657 -4.70007 65.44825 890.18477 892.60000 -178054.81675 12910.83069 -1888.50687 178532.00000 
1.76189 -2.73470 41.59850 508.59385 510.29953 -101736.65316 7377.76665 -1149.63649 102010.00000 
1.77721 -0.77340 11.68696 127.47784 128.01500 -25513.47227 1851.58880 -323.68187 25582.60000 
1.79253 1.19054 -24.62168 -254.37325 255.56485 50856.72738 -3685.24798 595.55604 50993.60000 
1.80785 3.15314 -67.43733 -636.09446 639.66700 127200.95105 -9220.20157 1608.87904 127545.00000 
1.82317 5.11360 -116.86241 -1017.42309 1024.13000 203466.65811 -14749.46281 2717.60795 204019.00000 
1.83849 7.07046 -172.92542 -1397.97229 1408.64000 279576.48338 -20267.42273 3921.86871 280338.00000 
1.85381 9.02272 -235.60030 -1777.43467 1793.00000 355468.94327 -25769.62376 5221.08146 356440.00000 
1.86914 10.96913 -304.78998 -2155.45551 2176.93000 431073.09631 -31250.92267 6613.58870 432255.00000 
1.88446 12.90954 -380.36173 -2531.89544 2560.34000 506361.07007 -36709.29871 8097.43733 507755.00000 
1.89978 14.83992 -462.00085 -2905.86174 2942.40000 581154.31917 -42131.80733 9667.25534 582760.00000 
1.91510 16.77062 -549.77362 -3279.27027 3325.08000 655836.01449 -47546.22843 11326.07597 657655.00000 
1.93042 18.65773 -641.89598 -3643.50826 3699.67000 728683.60243 -52827.67690 13039.24974 730712.00000 
1.94574 20.65907 -743.47278 -4029.19049 4097.26000 805820.04002 -58420.06701 14912.35798 808073.00000 
1.96106 21.58996 -810.30711 -4206.11220 4283.51000 841204.37558 -60985.43046 16067.61158 843565.00000 
1.97638 22.26467 -868.88299 -4332.58943 4418.91000 866499.81602 -62819.34927 17051.88247 868941.00000 
1.99170 22.98038 -929.94791 -4466.52127 4562.36000 893286.17827 -64761.35998 18080.44643 895813.00000 
2.00702 23.65832 -990.30511 -4592.85949 4698.47000 918553.81856 -66593.26346 19091.19308 921162.00000 
2.02234 24.31725 -1050.56465 -4715.63804 4831.31000 943109.52613 -68373.55190 20096.72379 945798.00000 
2.03766 24.94892 -1110.27749 -4833.75484 4959.69000 966732.88342 -70086.24503 21088.87505 969500.00000 
2.05299 25.55165 -1169.29158 -4947.47180 5083.83000 989476.27263 -71735.14054 22065.10911 992319.00000 
2.06831 26.12179 -1227.37515 -5056.66963 5203.56000 1011315.83682 -73318.50880 23021.33208 1014230.00000 
2.08363 26.65662 -1284.32161 -5161.31666 5318.78000 1032245.24376 -74835.89071 23954.00563 1035230.00000 
2.09895 27.15436 -1339.92070 -5261.34374 5429.35000 1052250.65890 -76286.28327 24859.72645 1055310.00000 
2.11427 27.61493 -1393.96657 -5356.67934 5535.15000 1071317.77827 -77668.64943 25735.48981 1074440.00000 
2.12959 28.04012 -1446.25551 -5447.24258 5636.04000 1089430.42617 -78981.81639 26578.70562 1092610.00000 
2.14491 28.43346 -1496.58721 -5532.94723 5731.85000 1106571.35832 -80224.53201 27387.16775 1109810.00000 
2.16023 28.79864 -1544.75836 -5613.71516 5822.45000 1122724.97451 -81395.70200 28158.69837 1126020.00000 
2.17555 29.14088 -1590.58687 -5689.43741 5907.67000 1137869.39737 -82493.64174 28891.62625 1141220.00000 
2.19087 29.46576 -1633.87897 -5760.03279 5987.35000 1151988.47197 -83517.27514 29584.32852 1155390.00000 
2.20619 29.77592 -1674.45275 -5825.41432 6061.36000 1165064.78078 -84465.30766 30234.66907 1168510.00000 
2.22151 30.07203 -1712.13595 -5885.50001 6129.55000 1177081.92023 -85336.55040 30840.28998 1180570.00000 
2.23683 30.35279 -1746.76104 -5940.19049 6191.77000 1188020.01637 -86129.56250 31398.49872 1191550.00000 
2.25216 30.61582 -1778.19268 -5989.45805 6247.92000 1197873.52907 -86843.94230 31906.85689 1201440.00000 
2.26748 30.85667 -1806.23045 -6033.01529 6297.67000 1206584.97886 -87475.52253 32361.56694 1210180.00000 
2.28280 31.07581 -1830.98133 -6071.55810 6341.71000 1214293.54283 -88034.39352 32764.27822 1217920.00000 
2.29812 31.25540 -1851.46202 -6102.12626 6376.90000 1220407.17550 -88477.63199 33097.16251 1224060.00000 
2.31344 31.44839 -1870.85818 -6135.44832 6414.42000 1227071.58720 -88960.80190 33417.00027 1230750.00000 
2.32876 30.42794 -1815.92889 -5932.25772 6204.05000 1186433.46811 -86014.53898 32416.43365 1189990.00000 
2.34408 29.32509 -1754.04742 -5713.49331 5976.75000 1142680.58559 -82842.45572 31298.57921 1146110.00000 
2.35940 28.20934 -1689.79161 -5492.80141 5746.92000 1098542.20666 -79642.42395 30143.71930 1101840.00000 
2.37472 27.06759 -1622.75696 -5267.62055 5511.98000 1053506.03473 -76377.30218 28943.36417 1056670.00000 
2.39004 25.90896 -1553.82949 -5039.69169 5273.86000 1007920.26280 -73072.33440 27712.18939 1010950.00000 
2.40536 24.73660 -1483.49421 -4809.56027 5033.21000 961893.97764 -69735.42940 26457.85584 964781.00000 
2.42068 23.55510 -1412.28462 -4578.04624 4790.99000 915591.17290 -66378.47673 25189.01660 918340.00000 
2.43600 22.36841 -1340.65853 -4345.84732 4547.99000 869151.38781 -63011.59298 23913.10126 871761.00000 
