//              Time(s)       Force(Revolution:3)-ArfadaCaso1.iaa(N) Force[X](Revolution:3)-ArfadaCaso1.iaa(N) Force[Y](Revolution:3)-ArfadaCaso1.iaa(N) Force[Z](Revolution:3)-ArfadaCaso1.iaa(N) Moment[Z](Revolution:3)-ArfadaCaso1.iaa(N.mm) Moment[Y](Revolution:3)-ArfadaCaso1.iaa(N.mm) Moment[X](Revolution:3)-ArfadaCaso1.iaa(N.mm) Moment(Revolution:3)-ArfadaCaso1.iaa(N.mm) 
               0,00000       771,52600     711,01730     299,50854     1,20099       142185,61867 -10306,59912   4102,14692    142618,00000 
               0,00402       820,73000     756,36677     318,59888     1,27758       151255,51696 -10964,15071   4363,63809    151715,00000 
               0,00803       870,01700     801,80915     337,68195     1,35431       160343,99561 -11623,04937   4624,99820    160831,00000 
               0,01205       919,38700     847,36490     356,71047     1,43116       169455,15072 -12283,59204   4885,54159    169970,00000 
               0,01606       968,81400     893,03390     375,61809     1,50810       178588,95206 -12945,77654   5144,31448    179131,00000 
               0,02008       1018,36000    938,89751     394,36236     1,58523       187761,67668 -13610,78292   5400,68305    188332,00000 
               0,02410       1067,74000    984,72843     412,76076     1,66210       196927,86286 -14275,31528   5652,08823    197525,00000 
               0,02811       1117,96000    1031,48660    431,11776     1,74028       206279,49851 -14953,29250   5902,63227    206905,00000 
               0,03213       1165,02000    1075,51778    447,80014     1,81354       215085,73351 -15591,72885   6129,87955    215737,00000 
               0,03614       1162,77000    1074,22047    445,07199     1,81004       214826,26457 -15572,91754   6091,02562    215476,00000 
               0,04016       1163,02000    1075,39092    442,88636     1,81043       215060,34905 -15589,88820   6059,26316    215710,00000 
               0,04418       1162,50000    1076,01267    439,99160     1,80962       215184,69008 -15598,90257   6017,45960    215833,00000 
               0,04819       1162,12000    1076,93480    436,73857     1,80904       215369,10884 -15612,27248   5970,41523    216017,00000 
               0,05221       1161,64000    1077,91262    433,02739     1,80829       215564,66355 -15626,44971   5916,76299    216211,00000 
               0,05622       1161,13000    1079,01262    428,88559     1,80749       215784,65155 -15642,39832   5856,87817    216430,00000 
               0,06024       1160,56000    1080,21161    424,30433     1,80661       216024,43865 -15659,78233   5790,63877    216669,00000 
               0,06426       1159,94000    1081,51172    419,28496     1,80566       216284,44896 -15678,63249   5718,06197    216927,00000 
               0,06827       1159,29000    1082,90725    413,82574     1,80464       216563,54165 -15698,86611   5639,12249    217205,00000 
               0,07229       1158,58000    1084,39420    407,92560     1,80355       216860,91982 -15720,42542   5553,80425    217501,00000 
               0,07630       1157,84000    1085,96753    401,58309     1,80240       217175,57132 -15743,23703   5462,08531    217814,00000 
               0,08032       1157,06000    1087,62188    394,79660     1,80119       217506,42867 -15767,22358   5363,94201    218143,00000 
               0,08434       1156,24000    1089,35136    387,56433     1,79993       217852,31078 -15792,29943   5259,34743    218487,00000 
               0,08835       1155,39000    1091,14959    379,88426     1,79860       218211,94481 -15818,37233   5148,27184    218845,00000 
               0,09237       1154,50000    1093,00957    371,75413     1,79723       218583,92626 -15845,34044   5030,68176    219215,00000 
               0,09638       1153,58000    1094,92402    363,17154     1,79581       218966,80361 -15873,09856   4906,54188    219596,00000 
               0,10040       1152,64000    1096,88412    354,13354     1,79434       219358,81227 -15901,51875   4775,80906    219986,00000 
               0,10442       1151,66000    1098,88266    344,63766     1,79283       219758,50913 -15930,49641   4638,44640    220384,00000 
               0,10843       1150,66000    1100,90881    334,68021     1,79128       220163,72915 -15959,87457   4494,40034    220787,00000 
               0,11245       1149,62000    1102,94103    324,25437     1,78967       220570,16442 -15989,34095   4343,57533    221192,00000 
               0,11646       1148,65000    1105,07379    313,38656     1,78818       220996,70776 -16020,26521   4186,31996    221616,00000 
               0,12048       1147,11000    1106,66536    301,89800     1,78578       221315,01628 -16043,34279   4020,24519    221932,00000 
               0,12450       1148,34000    1110,94243    290,64957     1,78771       222170,42508 -16105,35946   3856,78942    222787,00000 
               0,12851       1135,94000    1102,00868    275,57117     1,76842       220383,67194 -15975,82269   3642,04292    220992,00000 
               0,13253       1080,38000    1050,99060    250,27528     1,68193       210180,05237 -15236,07716   3292,58510    210757,00000 
               0,13654       1033,44000    1008,04518    227,69636     1,60886       201590,96792 -14613,38377   2979,83798    202142,00000 
               0,14056       984,17700     962,51338     205,35313     1,53218       192484,60934 -13953,18850   2671,23502    193008,00000 
               0,14458       936,00100     917,71777     184,09210     1,45718       183525,49047 -13303,66806   2377,98592    184022,00000 
               0,14859       887,85260     872,61811     163,76204     1,38223       174505,56474 -12649,73924   2098,22843    174976,00000 
               0,15261       840,03000     827,50957     144,48941     1,30778       165483,86609 -11995,68199   1833,70309    165928,00000 
               0,15663       792,42300     782,29042     126,31216     1,23367       156440,04812 -11340,02124   1584,99477    156859,00000 
               0,16064       745,03900     736,97942     109,28275     1,15990       147377,86344 -10683,02905   1352,86169    147771,00000 
               0,16466       697,84700     691,56242     93,43971      1,08643       138294,48187 -10024,50027   1137,87126    138662,00000 
               0,16867       650,83200     646,04099     78,81579      1,01323       129190,21714 -9364,45766    940,50399     129533,00000 
               0,17269       603,95200     600,39623     65,43320      0,94024       120061,28848 -8702,62711    761,09387     120379,00000 
               0,17671       557,25400     554,69689     53,31521      0,86753       110921,44537 -8040,00546    599,96415     111214,00000 
               0,18072       510,41500     508,64713     42,44289      0,79460       101711,52036 -7372,30316    456,94024     101979,00000 
               0,18474       464,61900     463,45100     32,91013      0,72329       92672,32281  -6716,97848    333,01551     92916,00000  
               0,18875       415,03500     414,31722     24,39015      0,64608       82845,59712  -6004,55942    224,95488     83063,20000  
               0,19277       381,66900     381,24622     17,94442      0,59413       76231,42906  -5525,04603    141,91995     76431,50000  
               0,19679       387,58194     387,33532     13,81097      0,60333       77449,28530  -5613,34223    80,17990      77652,50000  
               0,20080       386,83900     386,72151     9,52378       0,60216       77326,55951  -5604,44833    18,28213      77529,40000  
               0,20482       387,89400     387,85574     5,42354       0,60380       77553,44154  -5620,90059   -41,46625      77756,90000  
               0,20883       388,42900     388,42569     1,44719       0,60463       77667,46719  -5629,17099   -99,25776      77871,30000  
               0,21285       389,07000     389,06267    -2,39030       0,60562       77794,89920  -5638,41337   -155,07107     77999,10000  
               0,21687       389,65100     389,60331    -6,08679       0,60652       77903,06258  -5646,25882   -208,82235     78107,70000  
               0,22088       390,21600     390,09606    -9,63905       0,60740       78001,64854  -5653,40993   -260,47831     78206,70000  
               0,22490       390,75200     390,53343    -13,04373      0,60823       78089,15823  -5659,75798   -309,98712     78294,60000  
               0,22891       391,26200     390,92237    -16,29783      0,60903       78166,97960  -5665,40361   -357,30617     78372,80000  
               0,23293       391,74700     391,26592    -19,39842      0,60978       78235,72382  -5670,39108   -402,39240     78442,00000  
               0,23695       392,20500     391,56800    -22,34271      0,61050       78296,17221  -5674,77703   -445,20553     78502,80000  
               0,24096       392,63800     391,83214    -25,12805      0,61117       78349,03157  -5678,61267   -485,70709     78556,10000  
               0,24498       393,04300     392,06176    -27,75193      0,61180       78394,98444  -5681,94748   -523,86068     78602,40000  
               0,24899       393,42200     392,26022    -30,21200      0,61239       78434,70499  -5684,83032   -559,63217     78642,40000  
               0,25301       393,77500     392,43037    -32,50603      0,61294       78468,76058  -5687,30229   -592,98902     78676,80000  
               0,25703       394,10100     392,57614    -34,63203      0,61345       78497,93996  -5689,42058   -623,90279     78706,30000  
               0,26104       394,39800     392,69685    -36,58779      0,61392       78522,10550  -5691,17518   -652,34015     78730,80000  
               0,26506       394,67800     392,80739    -38,37270      0,61436       78544,23414  -5692,78191   -678,29621     78753,20000  
               0,26908       394,89600     392,86629    -39,98084      0,61470       78556,03438  -5693,63964   -701,67132     78765,20000  
               0,27309       395,21000     393,03262    -41,42684      0,61519       78589,31908  -5696,05475   -722,72661     78798,80000  
               0,27711       395,05500     392,74550    -42,64977      0,61495       78531,90901  -5691,89438   -740,40256     78741,40000  
               0,28112       396,46800     394,03324    -43,86934      0,61716       78789,47151  -5710,56881   -758,51966     78999,80000  
               0,28514       392,07700     389,56945    -44,26714      0,61032       77896,72489  -5645,84737   -762,91431     78104,80000  
               0,28915       412,91600     410,19134    -47,35359      0,64278       82021,11359  -5944,86001   -814,15473     82240,30000  
               0,29317       465,65800     462,51332    -54,01953      0,72493       92485,51987  -6703,51376   -927,23662     92732,80000  
               0,29719       512,12400     508,60702    -59,90978      0,79731       101704,26914 -7371,85916   -1027,11767    101976,00000 
               0,30120       560,22800     556,33622    -65,91349      0,87223       111250,11693 -8063,91846   -1129,15501    111548,00000 
               0,30522       607,62100     603,36990    -71,74725      0,94606       120656,85774 -8745,89258   -1228,50778    120980,00000 
               0,30923       655,95500     651,34718    -77,60568      1,02134       130252,31951 -9441,54854   -1328,51189    130601,00000 
               0,31325       700,97290     696,04106    -82,99807      1,09147       139191,10001 -10089,59606  -1420,72613    139564,00000 
               0,31727       758,06800     752,73323    -89,76448      1,18040       150529,53796 -10911,61490  -1536,62609    150932,00000 
               0,32128       758,06800     752,73323    -89,76448      1,18041       150529,53803 -10911,61490  -1536,62811    150932,00000 
               0,32530       700,97290     696,04106    -82,99807      1,09150       139191,10017 -10089,59608  -1420,73183    139564,00000 
               0,32932       655,95500     651,34718    -77,60568      1,02139       130252,31973 -9441,54856   -1328,52092    130601,00000 
               0,33333       607,62100     603,36990    -71,74725      0,94612       120656,85797 -8745,89259   -1228,51969    120980,00000 
               0,33735       560,22800     556,33622    -65,91349      0,87231       111250,11713 -8063,91847   -1129,16942    111548,00000 
               0,34136       512,12400     508,60702    -59,90978      0,79739       101704,26925 -7371,85916   -1027,13416    101976,00000 
               0,34538       465,65800     462,51332    -54,01953      0,72502       92485,51987  -6703,51376   -927,25481     92732,80000  
               0,34940       412,91600     410,19134    -47,35359      0,64288       82021,11342  -5944,86000   -814,17401     82240,30000  
               0,35341       392,07700     389,56945    -44,26714      0,61043       77896,72461  -5645,84735   -762,93537     78104,80000  
               0,35743       396,46800     394,03324    -43,86934      0,61728       78789,47124  -5710,56879   -758,54334     78999,80000  
               0,36144       395,05500     392,74549    -42,64977      0,61508       78531,90874  -5691,89436   -740,42862     78741,40000  
               0,36546       395,21000     393,03262    -41,42684      0,61533       78589,31882  -5696,05473   -722,75510     78798,80000  
               0,36948       394,89600     392,86629    -39,98084      0,61485       78556,03414  -5693,63963   -701,70219     78765,20000  
               0,37349       394,67800     392,80738    -38,37270      0,61452       78544,23393  -5692,78190   -678,32943     78753,20000  
               0,37751       394,39800     392,69685    -36,58779      0,61410       78522,10533  -5691,17517   -652,37570     78730,80000  
               0,38152       394,10100     392,57614    -34,63203      0,61364       78497,93986  -5689,42057   -623,94062     78706,30000  
               0,38554       393,77500     392,43037    -32,50603      0,61314       78468,76055  -5687,30229   -593,02909     78676,80000  
               0,38956       393,42200     392,26022    -30,21200      0,61260       78434,70505  -5684,83032   -559,67444     78642,40000  
               0,39357       393,04300     392,06176    -27,75193      0,61202       78394,98461  -5681,94749   -523,90510     78602,40000  
               0,39759       392,63800     391,83215    -25,12805      0,61140       78349,03186  -5678,61269   -485,75361     78556,10000  
               0,40160       392,20500     391,56800    -22,34271      0,61074       78296,17263  -5674,77706   -445,25409     78502,80000  
               0,40562       391,74700     391,26592    -19,39842      0,61004       78235,72446  -5670,39112   -402,44294     78442,00000  
               0,40964       391,26200     390,92237    -16,29783      0,60929       78166,98034  -5665,40366   -357,35861     78372,80000  
               0,41365       390,75200     390,53344    -13,04373      0,60851       78089,15926  -5659,75806   -310,04141     78294,60000  
               0,41767       390,21600     390,09606    -9,63905       0,60768       78001,64978  -5653,41002   -260,53437     78206,70000  
               0,42168       389,65100     389,60330    -6,08679       0,60681       77903,06132  -5646,25873   -208,88009     78107,70000  
               0,42570       389,07000     389,06268    -2,39030       0,60592       77794,90214  -5638,41358   -155,13061     77999,10000  
               0,42972       388,42900     388,42569     1,44719       0,60493       77667,46796  -5629,17104   -99,31879      77871,30000  
               0,43373       387,89400     387,85575     5,42354       0,60411       77553,44196  -5620,90062   -41,52824      77756,90000  
               0,43775       386,83900     386,72153     9,52378       0,60248       77326,56219  -5604,44852    18,21941      77529,40000  
               0,44177       387,58194     387,33533     13,81097      0,60364       77449,28641  -5613,34231    80,11624      77652,50000  
               0,44578       381,66900     381,24623     17,94442      0,59444       76231,43143  -5525,04620    141,85646     76431,50000  
               0,44980       415,03500     414,31724     24,39015      0,64643       82845,59975  -6004,55962    224,88508     83063,20000  
               0,45381       464,61900     463,45102     32,91013      0,72369       92672,32618  -6716,97873    332,93626     92916,00000  
               0,45783       510,41500     508,64715     42,44289      0,79505       101711,52418 -7372,30344    456,85155     101979,00000 
               0,46185       557,25400     554,69692     53,31522      0,86803       110921,44974 -8040,00577    599,86515     111214,00000 
               0,46586       603,95200     600,39626     65,43320      0,94079       120061,29325 -8702,62746    760,98390     120379,00000 
               0,46988       650,83200     646,04102     78,81580      1,01384       129190,22228 -9364,45803    940,38228     129533,00000 
               0,47389       697,84700     691,56245     93,43971      1,08710       138294,48731 -10024,50067   1137,73701    138662,00000 
               0,47791       745,03900     736,97945     109,28276     1,16064       147377,86917 -10683,02947   1352,71406    147771,00000 
               0,48192       792,42300     782,29045     126,31216     1,23448       156440,05396 -11340,02166   1584,83287    156859,00000 
               0,48594       840,03000     827,50960     144,48941     1,30867       165483,87213 -11995,68243   1833,52600    165928,00000 
               0,48996       887,85300     872,61814     163,76205     1,38320       174505,57081 -12649,73968   2098,03516    174976,00000 
               0,49397       936,00100     917,71780     184,09211     1,45824       183525,49660 -13303,66850   2377,77545    184022,00000 
               0,49799       984,17700     962,51342     205,35313     1,53332       192484,61544 -13953,18894   2671,00632    193008,00000 
               0,50201       1033,44000    1008,04521    227,69637     1,61011       201590,97396 -14613,38421   2979,58983    202142,00000 
               0,50602       1080,38000    1050,99063    250,27529     1,68327       210180,05831 -15236,07759   3292,31672    210757,00000 
               0,51004       1135,94000    1102,00870    275,57117     1,76988       220383,67774 -15975,82311   3641,75166    220992,00000 
               0,51405       1148,34000    1110,94245    290,64958     1,78922       222170,43067 -16105,35986   3856,48660    222787,00000 
               0,51807       1147,11000    1106,66539    301,89801     1,78734       221315,02164 -16043,34318   4019,93332    221932,00000 
               0,52209       1148,65000    1105,07381    313,38656     1,78979       220996,71294 -16020,26559   4185,99806    221616,00000 
               0,52610       1149,62000    1102,94106    324,25438     1,79133       220570,16941 -15989,34131   4343,24335    221192,00000 
               0,53012       1150,66000    1100,90884    334,68022     1,79299       220163,73398 -15959,87492   4494,05795    220787,00000 
               0,53413       1151,66000    1098,88268    344,63767     1,79460       219758,51381 -15930,49675   4638,09336    220384,00000 
               0,53815       1152,64000    1096,88414    354,13355     1,79616       219358,81682 -15901,51908   4775,44506    219986,00000 
               0,54217       1153,58000    1094,92404    363,17155     1,79769       218966,80809 -15873,09888   4906,16664    219596,00000 
               0,54618       1154,50000    1093,00959    371,75413     1,79916       218583,93062 -15845,34076   5030,29498    219215,00000 
               0,55020       1155,39000    1091,14962    379,88427     1,80060       218211,94914 -15818,37264   5147,87320    218845,00000 
               0,55421       1156,24000    1089,35138    387,56434     1,80198       217852,31504 -15792,29974   5258,93662    218487,00000 
               0,55823       1157,06000    1087,62190    394,79661     1,80331       217506,43291 -15767,22389   5363,51871    218143,00000 
               0,56225       1157,84000    1085,96755    401,58310     1,80458       217175,57553 -15743,23734   5461,64918    217814,00000 
               0,56626       1158,58000    1084,39422    407,92561     1,80580       216860,92407 -15720,42572   5553,35495    217501,00000 
               0,57028       1159,29000    1082,90727    413,82575     1,80695       216563,54592 -15698,86642   5638,65967    217205,00000 
               0,57429       1159,94000    1081,51174    419,28497     1,80804       216284,45330 -15678,63281   5717,58528    216927,00000 
               0,57831       1160,56000    1080,21163    424,30434     1,80907       216024,44306 -15659,78265   5790,14785    216669,00000 
               0,58233       1161,13000    1079,01264    428,88560     1,81002       215784,65606 -15642,39865   5856,37265    216430,00000 
               0,58634       1161,64000    1077,91265    433,02740     1,81089       215564,66820 -15626,45005   5916,24250    216211,00000 
               0,59036       1162,12000    1076,93483    436,73858     1,81172       215369,11363 -15612,27283   5969,87938    216017,00000 
               0,59437       1162,50000    1076,01269    439,99162     1,81238       215184,69505 -15598,90293   6016,90802    215833,00000 
               0,59839       1163,02000    1075,39095    442,88638     1,81327       215060,35422 -15589,88858   6058,69540    215710,00000 
               0,60241       1162,77000    1074,22049    445,07201     1,81296       214826,26998 -15572,91793   6090,44153    215476,00000 
               0,60642       1165,02000    1075,51781    447,80016     1,81655       215085,73918 -15591,72926   6129,27775    215737,00000 
               0,61044       1117,96000    1031,48663    431,11779     1,74324       206279,50458 -14953,29294   5902,04002    206905,00000 
               0,61445       1067,74000    984,72846     412,76078     1,66500       196927,86933 -14275,31575   5651,50796    197525,00000 
               0,61847       1018,36000    938,89754     394,36238     1,58807       187761,68359 -13610,78342   5400,11569    188332,00000 
               0,62249       968,81400     893,03393     375,61812     1,51087       178588,95941 -12945,77707   5143,76143    179131,00000 
               0,62650       919,38700     847,36494     356,71050     1,43385       169455,15853 -12283,59261   4885,00417    169970,00000 
               0,63052       870,01700     801,80919     337,68198     1,35691       160344,00388 -11623,04997   4624,47781    160831,00000 
               0,63453       820,72998     756,36682     318,59891     1,28010       151255,52568 -10964,15134   4363,13617    151715,00000 
               0,63855       771,52900     711,02007     299,50972     1,20341       142186,17271 -10306,63928   4101,68073    142618,00000 
