Time(s) Force[Z](Cylindrical:11)-CabeceoCaso1.iaa(N) Force[Y](Cylindrical:11)-CabeceoCaso1.iaa(N) Force[X](Cylindrical:11)-CabeceoCaso1.iaa(N) Force(Cylindrical:11)-CabeceoCaso1.iaa(N) Moment[Z](Cylindrical:11)-CabeceoCaso1.iaa(N.mm) Moment[Y](Cylindrical:11)-CabeceoCaso1.iaa(N.mm) Moment[X](Cylindrical:11)-CabeceoCaso1.iaa(N.mm) Moment(Cylindrical:11)-CabeceoCaso1.iaa(N.mm) 
0.00000 -2799.44000 1501.27000 -1.81857 3176.59000 8099.43000 2349.36000 -58549.70000 59153.90000 
0.01532 -3198.27000 1531.15000 -2.39832 3545.89000 8309.25000 2389.35000 -59714.70000 60337.30000 
0.03064 -3595.90000 1560.83000 -2.97691 3920.04000 8517.76000 2428.45000 -60872.40000 61513.40000 
0.04596 -3991.18000 1590.14000 -3.55290 4296.29000 8723.16000 2465.58000 -62015.40000 62674.40000 
0.06128 -4382.83000 1618.86000 -4.12426 4672.25000 8922.86000 2499.38000 -63135.60000 63812.00000 
0.07660 -4770.11000 1646.83000 -4.68940 5046.39000 9113.94000 2528.37000 -64226.50000 64919.20000 
0.09192 -5150.33000 1673.73000 -5.24350 5415.47000 9291.85000 2550.65000 -65275.60000 65982.90000 
0.10724 -5528.27000 1699.79000 -5.79223 5783.69000 9455.32000 2564.90000 -66292.00000 67012.00000 
0.12257 -5880.79000 1723.16000 -6.30069 6128.04000 9588.34000 2567.05000 -67203.10000 67932.20000 
0.13789 -5827.46000 1715.12000 -6.22221 6074.62000 9498.66000 2521.96000 -66889.90000 67608.00000 
0.15321 -5779.67000 1706.61000 -6.15208 6026.37000 9399.22000 2469.39000 -66558.00000 67263.70000 
0.16853 -5718.78000 1696.22000 -6.06395 5965.03000 9281.36000 2408.17000 -66152.50000 66843.80000 
0.18385 -5649.83000 1684.31000 -5.96553 5895.55000 9148.42000 2339.31000 -65688.10000 66363.30000 
0.19917 -5571.52000 1670.78000 -5.85556 5816.64000 9000.74000 2263.35000 -65160.60000 65818.20000 
0.21449 -5484.23000 1655.66000 -5.73525 5728.70000 8839.56000 2181.03000 -64570.90000 65209.60000 
0.22981 -5387.92000 1638.93000 -5.60523 5631.68000 8666.00000 2093.07000 -63918.50000 64537.20000 
0.24513 -5282.65000 1620.59000 -5.46639 5525.65000 8481.30000 2000.26000 -63203.10000 63801.00000 
0.26045 -5168.47000 1600.63000 -5.31961 5410.65000 8286.76000 1903.38000 -62424.60000 63001.00000 
0.27577 -5045.41000 1579.04000 -5.16584 5286.73000 8083.72000 1803.23000 -61582.50000 62137.00000 
0.29109 -4913.53000 1555.81000 -5.00608 5153.96000 7873.56000 1700.59000 -60676.50000 61208.80000 
0.30642 -4772.87000 1530.92000 -4.84135 5012.39000 7657.69000 1596.24000 -59706.00000 60216.20000 
0.32174 -4623.49000 1504.37000 -4.67274 4862.08000 7437.49000 1490.91000 -58670.40000 59158.80000 
0.33706 -4465.42000 1476.14000 -4.50135 4703.08000 7214.38000 1385.32000 -57569.30000 58036.10000 
0.35238 -4298.72000 1446.20000 -4.32832 4535.47000 6989.72000 1280.10000 -56401.90000 56847.70000 
0.36770 -4123.41000 1414.55000 -4.15480 4359.30000 6764.85000 1175.87000 -55167.30000 55592.90000 
0.38302 -3939.55000 1381.15000 -3.98196 4174.64000 6541.07000 1073.15000 -53864.70000 54271.00000 
0.39834 -3747.14000 1345.97000 -3.81095 3981.54000 6319.59000 972.39700 -52492.90000 52880.90000 
0.41366 -3546.33000 1309.01000 -3.64313 3780.21000 6101.60000 874.00769 -51051.30000 51422.10000 
0.42898 -3336.64000 1270.17000 -3.47909 3570.22000 5888.07000 778.30300 -49536.80000 49891.60000 
0.44430 -3120.01000 1229.60000 -3.32224 3353.56000 5680.21000 685.46300 -47954.30000 48294.40000 
0.45962 -2889.20000 1186.62000 -3.16565 3123.39000 5478.20000 595.86700 -46278.30000 46605.20000 
0.47494 -2671.41000 1143.53000 -3.04037 2905.88000 5284.62000 508.66600 -44597.80000 44912.70000 
0.49027 -2361.36000 1091.13000 -2.83450 2601.27000 5095.54000 427.74646 -42554.10000 42860.20000 
0.50559 -1669.77000 1003.47000 -2.25696 1948.10000 4920.74000 365.51355 -39135.30000 39445.20000 
0.52091 -1012.30000 916.81700 -1.75952 1365.76000 4788.54000 306.46200 -35755.90000 36076.40000 
0.53623 -333.17700 826.09200 -1.28290 890.75000 4695.81000 251.34500 -32217.60000 32559.00000 
0.55155 351.63300 732.62300 -0.84257 812.63900 4640.84000 198.14400 -28572.30000 28947.40000 
0.56687 1045.47000 635.98500 -0.43367 1223.72000 4621.24000 145.62468 -24803.40000 25230.70000 
0.58219 1746.44000 536.24000 -0.05616 1826.91000 4634.09000 92.43950 -20913.40000 21420.80000 
0.59751 2454.02000 433.33100 0.29174 2491.99000 4676.25000 37.44640 -16899.90000 17535.00000 
0.61283 3167.28000 327.25900 0.61177 3184.14000 4744.34000 -20.32375 -12763.10000 13616.40000 
0.62815 3885.34000 218.03900 0.90599 3891.45000 4834.96000 -81.62080 -8503.53000 9782.30000 
0.64347 4607.16000 105.73200 1.17661 4608.38000 4944.67000 -146.96900 -4123.55000 6440.11000 
0.65879 5331.95000 -9.59035 1.42620 5331.96000 5070.21000 -216.65200 374.02359 5088.60000 
0.67412 6057.77000 -127.69600 1.65657 6059.11000 5208.29000 -290.75000 4980.14000 7211.98000 
0.68944 6786.53000 -248.72700 1.87274 6791.08000 5356.50000 -369.05600 9700.35000 11087.20000 
0.70476 7505.31000 -371.11850 2.06817 7514.48000 5510.05000 -451.39300 14473.60000 15493.60000 
0.72008 8256.59000 -499.55100 2.27899 8271.69000 5674.76000 -536.77100 19482.50000 20299.20000 
0.73540 8862.55000 -613.09000 2.37540 8883.74000 5814.34000 -625.72300 23910.50000 24615.30000 
0.75072 9108.06000 -684.88200 2.21029 9133.78000 5878.83000 -715.78100 26710.40000 27359.10000 
0.76604 9400.27000 -762.25700 2.09040 9431.13000 5942.40000 -803.01600 29728.00000 30326.80000 
0.78136 9667.84000 -836.55300 1.96352 9703.96000 5992.61000 -887.34300 32625.60000 33183.20000 
0.79668 9929.88000 -909.93400 1.84360 9971.48000 6034.03000 -968.44600 35487.40000 36009.80000 
0.81200 10181.10000 -981.59200 1.72707 10228.30000 6066.50000 -1046.06000 38282.10000 38773.90000 
0.82732 10422.70000 -1051.54000 1.61499 10475.60000 6091.11000 -1120.01000 41010.00000 41475.00000 
0.84264 10654.30000 -1119.56000 1.50716 10713.00000 6108.60000 -1190.13000 43662.90000 44104.20000 
0.85796 10875.90000 -1185.52000 1.40370 10940.30000 6119.73000 -1256.34000 46235.10000 46655.30000 
0.87328 11087.20000 -1249.24000 1.30465 11157.40000 6125.24000 -1318.56000 48720.50000 49121.70000 
0.88861 11288.30000 -1310.59000 1.21002 11364.10000 6125.85000 -1376.77000 51113.20000 51497.40000 
0.90393 11478.80000 -1369.42000 1.11979 11560.20000 6122.23000 -1430.98000 53407.40000 53776.30000 
0.91925 11658.90000 -1425.58000 1.03392 11745.70000 6115.03000 -1481.23000 55597.80000 55952.70000 
0.93457 11828.30000 -1478.95000 0.95233 11920.40000 6104.90000 -1527.57000 57679.00000 58021.30000 
0.94989 11986.90000 -1529.38000 0.87490 12084.10000 6092.43000 -1570.10000 59646.00000 59976.90000 
0.96521 12134.70000 -1576.77000 0.80143 12236.70000 6078.21000 -1608.92000 61494.00000 61814.60000 
0.98053 12271.50000 -1620.98000 0.73168 12378.10000 6062.83000 -1644.17000 63218.40000 63529.80000 
0.99585 12397.30000 -1661.93000 0.66535 12508.20000 6046.87000 -1675.98000 64815.20000 65118.20000 
1.01117 12511.90000 -1699.48000 0.60200 12626.80000 6030.90000 -1704.55000 66279.80000 66575.50000 
1.02649 12615.60000 -1733.61000 0.54138 12734.10000 6015.60000 -1730.07000 67610.70000 67899.80000 
1.04181 12706.90000 -1764.03000 0.48225 12828.80000 6001.39000 -1752.72000 68797.00000 69080.50000 
1.05713 12790.80000 -1791.38000 0.42696 12915.60000 5989.92000 -1772.93000 69863.80000 70142.50000 
1.07245 12849.00000 -1812.90000 0.36460 12976.20000 5978.57000 -1790.36000 70703.10000 70978.00000 
1.08778 12949.00000 -1838.65000 0.33431 13078.90000 5981.10000 -1807.66000 71707.40000 71979.10000 
1.10310 12797.60000 -1824.48000 0.16622 12927.00000 5942.98000 -1814.86000 71154.90000 71425.70000 
1.11842 12336.90000 -1761.50000 -0.17204 12462.00000 5854.12000 -1810.08000 68698.50000 68971.20000 
1.13374 11926.40000 -1704.14000 -0.47159 12047.50000 5782.74000 -1806.50000 66461.40000 66737.00000 
1.14906 11491.00000 -1641.43000 -0.77421 11607.60000 5715.20000 -1802.05000 64015.80000 64295.60000 
1.16438 11055.60000 -1577.45000 -1.06225 11167.60000 5655.98000 -1797.86000 61520.40000 61806.00000 
1.17970 10605.80000 -1510.33000 -1.33899 10712.80000 5601.40000 -1793.34000 58902.90000 59195.80000 
1.19502 10183.50000 -1446.72000 -1.57410 10285.80000 5557.05000 -1789.46000 56422.00000 56723.30000 
1.21034 9644.59000 -1365.04000 -1.84416 9740.71000 5492.26000 -1780.04000 53236.40000 53548.50000 
1.22566 9644.71000 -1364.89000 -1.76676 9740.81000 5524.33000 -1786.99000 53230.60000 53546.30000 
1.24098 10183.90000 -1446.28000 -1.33927 10286.00000 5647.58000 -1808.45000 56404.80000 56715.70000 
1.25630 10606.30000 -1509.62000 -0.94089 10713.20000 5734.01000 -1819.04000 58875.00000 59181.60000 
1.27163 11056.30000 -1576.49000 -0.49787 11168.10000 5805.97000 -1822.42000 61483.00000 61783.40000 
1.28695 11491.90000 -1640.26000 -0.05105 11608.30000 5853.57000 -1816.74000 63970.30000 64263.30000 
1.30227 11927.40000 -1702.82000 0.38606 12048.30000 5878.46000 -1802.65000 66410.10000 66694.10000 
1.31759 12337.90000 -1760.09000 0.77129 12462.80000 5880.94000 -1781.55000 68643.60000 68918.00000 
1.33291 12798.70000 -1823.03000 1.13441 12927.90000 5893.99000 -1762.09000 71098.10000 71363.80000 
1.34823 12950.00000 -1837.21000 1.25880 13079.70000 5854.81000 -1733.16000 71651.00000 71910.80000 
1.36355 12850.00000 -1811.52000 1.18004 12977.10000 5785.49000 -1700.27000 70649.20000 70906.10000 
1.37887 12791.70000 -1790.11000 1.08142 12916.40000 5750.99000 -1676.02000 69814.30000 70070.80000 
1.39419 12707.80000 -1762.91000 0.94793 12829.50000 5742.46000 -1658.13000 68753.60000 69012.90000 
1.40951 12616.30000 -1732.67000 0.81080 12734.70000 5756.93000 -1644.26000 67574.00000 67838.80000 
1.42483 12512.50000 -1698.73000 0.69011 12627.20000 5794.05000 -1633.25000 66250.50000 66523.50000 
1.44015 12397.70000 -1661.36000 0.60256 12508.50000 5846.08000 -1621.92000 64793.20000 65076.60000 
1.45547 12271.80000 -1620.60000 0.55651 12378.30000 5905.47000 -1607.58000 63203.30000 63498.90000 
1.47080 12134.90000 -1576.54000 0.55352 12236.80000 5965.44000 -1588.16000 61484.90000 61794.00000 
1.48612 11987.00000 -1529.28000 0.58975 12084.10000 6020.80000 -1562.36000 59641.90000 59965.40000 
1.50144 11828.30000 -1478.94000 0.65834 11920.40000 6068.16000 -1529.62000 57678.80000 58017.30000 
1.51676 11658.80000 -1425.65000 0.75139 11745.70000 6105.75000 -1489.94000 55600.50000 55954.50000 
1.53208 11478.80000 -1369.54000 0.86153 11560.20000 6133.02000 -1443.65000 53412.00000 53782.30000 
1.54740 11288.20000 -1310.74000 0.98265 11364.00000 6150.16000 -1391.29000 51118.90000 51506.30000 
1.56272 11087.10000 -1249.40000 1.11023 11157.30000 6157.70000 -1333.40000 48726.80000 49132.40000 
1.57804 10875.80000 -1185.68000 1.24125 10940.20000 6156.22000 -1270.49000 46241.50000 46666.80000 
1.59336 10654.20000 -1119.72000 1.37388 10712.90000 6146.17000 -1203.01000 43669.10000 44115.90000 
1.60868 10422.60000 -1051.69000 1.50725 10475.60000 6127.79000 -1131.33000 41015.80000 41486.50000 
1.62400 10181.00000 -981.72998 1.64101 10228.20000 6101.05000 -1055.76000 38287.50000 38784.90000 
1.63932 9929.81000 -910.05900 1.77550 9971.42000 6065.79000 -976.57800 35492.30000 36020.10000 
1.65464 9667.78000 -836.66400 1.91003 9703.91000 6021.32000 -894.04700 32629.90000 33192.90000 
1.66997 9400.22000 -762.35500 2.04865 9431.08000 5968.06000 -808.46400 29731.90000 30335.70000 
1.68529 9108.02000 -684.96759 2.17786 9133.74000 5901.59000 -720.15100 26713.70000 27367.30000 
1.70061 8862.52000 -613.16500 2.35032 8883.70000 5834.46000 -629.18800 23913.50000 24623.00000 
1.71593 8256.56000 -499.61618 2.25966 8271.66000 5692.54000 -539.48400 19485.00000 20306.70000 
1.73125 7505.29000 -371.17500 2.05337 7514.46000 5525.79000 -453.49054 14475.80000 15501.30000 
1.74657 6786.50000 -248.77655 1.86151 6791.06000 5370.52000 -370.65100 9702.29000 11095.70000 
1.76189 6057.75000 -127.74000 1.64819 6059.09000 5220.85000 -291.93400 4981.85000 7222.28000 
1.77721 5331.93000 -9.62899 1.42014 5331.94000 5081.59000 -217.49900 375.53000 5100.08000 
1.79253 4607.15000 105.69800 1.17248 4608.36000 4955.09000 -147.53600 -4122.21000 6447.27000 
1.80785 3885.33000 218.00795 0.90351 3891.44000 4844.63000 -81.95137 -8502.31000 9786.03000 
1.82317 3167.27000 327.23000 0.61076 3184.13000 4753.45000 -20.44770 -12762.00000 13618.50000 
1.83849 2454.01000 433.30500 0.29212 2491.98000 4684.97000 37.50960 -16898.90000 17536.30000 
1.85381 1746.43000 536.21500 -0.05445 1826.90000 4642.59000 92.67970 -20912.40000 21421.70000 
1.86914 1045.46000 635.96100 -0.43060 1223.70000 4629.66000 146.04039 -24802.50000 25231.30000 
1.88446 351.62500 732.59900 -0.83807 812.61400 4649.32000 198.74200 -28571.40000 28947.90000 
1.89978 -333.18400 826.06800 -1.27685 890.73100 4704.48000 252.13800 -32216.60000 32559.30000 
1.91510 -1012.31000 916.79200 -1.75174 1365.75000 4797.56000 307.47200 -35754.90000 36076.60000 
1.93042 -1669.77000 1003.44000 -2.24721 1948.09000 4930.23000 366.76900 -39134.30000 39445.40000 
1.94574 -2361.36000 1091.10000 -2.82246 2601.26000 5105.65000 429.28400 -42553.00000 42860.30000 
1.96106 -2671.42000 1143.50000 -3.02571 2905.87000 5295.50000 510.52900 -44596.60000 44912.80000 
1.97638 -2889.21000 1186.59000 -3.14788 3123.38000 5490.00000 598.10900 -46277.00000 46605.40000 
1.99170 -3120.02000 1229.56000 -3.30073 3353.56000 5693.07000 688.14700 -47952.90000 48294.60000 
2.00702 -3336.64000 1270.13000 -3.45307 3570.22000 5902.12000 781.49900 -49535.30000 49891.80000 
2.02234 -3546.34000 1308.96000 -3.61163 3780.20000 6116.97000 877.79600 -51049.60000 51422.30000 
2.03766 -3747.14000 1345.92000 -3.77281 3981.53000 6336.37000 976.86084 -52491.00000 52881.10000 
2.05299 -3939.56000 1381.09000 -3.93574 4174.63000 6559.30000 1078.37000 -53862.60000 54271.20000 
2.06831 -4123.42000 1414.49000 -4.09876 4359.29000 6784.51000 1181.94000 -55164.90000 55593.10000 
2.08363 -4298.73000 1446.14000 -4.26038 4535.46000 7010.66000 1287.10000 -56399.30000 56847.90000 
2.09895 -4465.43000 1476.06000 -4.41904 4703.07000 7236.32000 1393.28000 -57566.50000 58036.20000 
2.11427 -4623.50000 1504.29000 -4.57315 4862.06000 7459.94000 1499.85000 -58667.40000 59158.80000 
2.12959 -4772.88000 1530.84000 -4.72114 5012.38000 7679.87000 1606.10000 -59702.70000 60216.00000 
2.14491 -4913.54000 1555.72000 -4.86147 5153.95000 7894.35000 1711.23000 -60673.00000 61208.40000 
2.16023 -5045.42000 1578.95000 -4.99273 5286.71000 8101.52000 1814.39000 -61579.00000 62136.20000 
2.17555 -5168.47000 1600.54000 -5.11366 5410.63000 8299.45000 1914.65000 -62421.20000 62999.60000 
2.19087 -5282.66000 1620.51000 -5.22331 5525.63000 8486.10000 2011.00000 -63200.00000 63798.90000 
2.20619 -5387.93000 1638.87000 -5.32112 5631.67000 8659.44000 2102.40000 -63915.80000 64534.00000 
2.22151 -5484.23000 1655.62000 -5.40713 5728.69000 8817.44000 2187.81000 -64569.10000 65205.10000 
2.23683 -5571.52000 1670.77000 -5.48206 5816.64000 8958.19000 2266.14000 -65160.10000 65812.00000 
2.25216 -5649.83000 1684.34000 -5.54765 5895.56000 9080.10000 2336.40000 -65689.30000 66355.00000 
2.26748 -5718.77000 1696.31000 -5.60591 5965.05000 9181.74000 2397.65000 -66156.00000 66833.10000 
2.28280 -5779.65000 1706.77000 -5.66212 6026.40000 9263.12000 2449.27000 -66564.20000 67250.20000 
2.29812 -5827.44000 1715.37000 -5.71313 6074.67000 9321.86000 2490.35000 -66899.30000 67591.60000 
2.31344 -5880.76000 1723.49000 -5.78991 6128.12000 9368.34000 2522.43000 -67216.20000 67912.80000 
2.32876 -5528.24000 1700.23000 -5.30185 5783.79000 9192.39000 2506.42000 -66308.90000 66990.00000 
2.34408 -5150.29000 1674.26000 -4.79776 5415.60000 8989.24000 2478.31000 -65296.30000 65958.70000 
2.35940 -4770.07000 1647.45000 -4.31300 5046.55000 8778.29000 2443.20000 -64250.60000 64893.50000 
2.37472 -4382.78000 1619.55000 -3.83964 4672.44000 8564.01000 2403.50000 -63162.40000 63785.70000 
2.39004 -3991.13000 1590.87000 -3.37744 4296.51000 8353.49000 2362.06000 -62044.10000 62648.40000 
2.40536 -3595.85000 1561.58000 -2.92052 3920.30000 8150.99000 2321.09000 -60901.80000 61488.70000 
2.42068 -3198.22000 1531.89000 -2.46196 3546.17000 7959.02000 2282.22000 -59743.60000 60314.60000 
2.43600 -2799.39000 1501.97000 -1.99400 3176.87000 7777.90000 2246.43000 -58576.70000 59133.60000 
