//              Time(s)       Force(Revolution:3)-ArfadaCaso1.iaa(N) Force[X](Revolution:3)-ArfadaCaso1.iaa(N) Force[Y](Revolution:3)-ArfadaCaso1.iaa(N) Force[Z](Revolution:3)-ArfadaCaso1.iaa(N) Moment(Revolution:3)-ArfadaCaso1.iaa(N.mm) Moment[X](Revolution:3)-ArfadaCaso1.iaa(N.mm) Moment[Y](Revolution:3)-ArfadaCaso1.iaa(N.mm) Moment[Z](Revolution:3)-ArfadaCaso1.iaa(N.mm) Force[Z](Revolution:2)-ArfadaCaso1.iaa(N) Force[Y](Revolution:2)-ArfadaCaso1.iaa(N) Force[X](Revolution:2)-ArfadaCaso1.iaa(N) Force(Revolution:2)-ArfadaCaso1.iaa(N) Moment[Z](Revolution:2)-ArfadaCaso1.iaa(N.mm) Moment[Y](Revolution:2)-ArfadaCaso1.iaa(N.mm) Moment[X](Revolution:2)-ArfadaCaso1.iaa(N.mm) Moment(Revolution:2)-ArfadaCaso1.iaa(N.mm) 
               0,00000       771,52600     177,75300    -750,76947     1,20099       142618,00000 -10843,20000  -2340,53000    142186,00000  1,30291      -814,37800     192,84400     836,90000     154233,00000  3053,22000    11848,40000   154717,00000 
               0,00402       820,73000     189,08500    -798,65100     1,27758       151715,00000 -11535,00000  -2489,74000    151256,00000  1,38591      -866,26100     205,12500     890,21700     164061,00000  3247,68000    12603,40000   164576,00000 
               0,00803       870,01700     200,44000    -846,61145     1,35431       160831,00000 -12227,80000  -2639,25000    160344,00000  1,46905      -918,22290     217,42900     943,61600     173907,00000  3442,49000    13359,60000   174454,00000 
               0,01205       919,38700     211,82200    -894,65100     1,43116       169970,00000 -12921,90000  -2789,12000    169455,00000  1,55231      -970,26500     229,76200     997,09900     183777,00000  3637,75000    14116,90000   184355,00000 
               0,01606       968,81400     223,23000    -942,74400     1,50810       179131,00000 -13616,80000  -2939,36000    178589,00000  1,63567      -1022,36000    242,12200     1050,64000    193671,00000  3833,43000    14874,90000   194279,00000 
               0,02008       1018,36000    234,68500    -990,94600     1,58523       188332,00000 -14313,30000  -3090,21000    187762,00000  1,71921      -1074,56000    254,53100     1104,30000    203606,00000  4029,87000    15634,40000   204245,00000 
               0,02410       1067,74000    246,12800    -1038,98000    1,66210       197525,00000 -15007,60000  -3240,93000    196928,00000  1,80248      -1126,59000    266,92700     1157,78000    213534,00000  4226,10000    16391,30000   214203,00000 
               0,02811       1117,96000    257,79900    -1087,83000    1,74028       206905,00000 -15713,60000  -3394,67000    206280,00000  1,88713      -1179,48000    279,56500     1212,16000    223659,00000  4426,12000    17160,40000   224360,00000 
               0,03213       1165,02000    268,78100    -1133,59000    1,81354       215737,00000 -16375,30000  -3539,37000    215086,00000  1,96658      -1229,10000    291,47644     1263,19000    233208,00000  4614,61000    17882,00000   233938,00000 
               0,03614       1162,77000    268,43200    -1131,36000    1,81004       215476,00000 -16343,80000  -3534,88000    214826,00000  1,96291      -1226,76000    291,11400     1260,83000    232940,00000  4608,75000    17847,20000   233668,00000 
               0,04016       1163,02000    268,69223    -1131,56000    1,81043       215710,00000 -16347,40000  -3538,45000    215060,00000  1,96335      -1226,98000    291,40000     1261,11000    233197,00000  4613,13000    17849,50000   233924,00000 
               0,04418       1162,50000    268,80700    -1130,99000    1,80962       215833,00000 -16340,20000  -3540,13000    215185,00000  1,96253      -1226,41000    291,53400     1260,58000    233339,00000  4615,07000    17840,10000   234065,00000 
               0,04819       1162,12000    268,98800    -1130,56000    1,80904       216017,00000 -16335,20000  -3542,69000    215369,00000  1,96196      -1225,98000    291,73822     1260,22000    233546,00000  4618,11000    17832,70000   234271,00000 
               0,05221       1161,64000    269,17157    -1130,02000    1,80829       216211,00000 -16328,70000  -3545,31000    215565,00000  1,96122      -1225,44000    291,94800     1259,74000    233766,00000  4621,20000    17823,50000   234491,00000 
               0,05622       1161,13000    269,37300    -1129,45000    1,80749       216430,00000 -16321,70000  -3548,18000    215785,00000  1,96043      -1224,86000    292,17800     1259,23000    234014,00000  4624,60000    17813,50000   234737,00000 
               0,06024       1160,56000    269,58600    -1128,81000    1,80661       216669,00000 -16314,10000  -3551,21000    216024,00000  1,95956      -1224,23000    292,42000     1258,67000    234284,00000  4628,19000    17802,60000   235005,00000 
               0,06426       1159,94000    269,80800    -1128,13000    1,80566       216927,00000 -16305,90000  -3554,38000    216284,00000  1,95861      -1223,54000    292,67392     1258,06000    234577,00000  4631,94000    17790,80000   235297,00000 
               0,06827       1159,29000    270,03500    -1127,40000    1,80464       217205,00000 -16297,20000  -3557,63000    216564,00000  1,95760      -1222,81000    292,93500     1257,41000    234892,00000  4635,79000    17778,10000   235609,00000 
               0,07229       1158,58000    270,26600    -1126,62000    1,80355       217501,00000 -16287,90000  -3560,94000    216861,00000  1,95653      -1222,03000    293,20000     1256,71000    235227,00000  4639,69000    17764,60000   235942,00000 
               0,07630       1157,84000    270,49600    -1125,80000    1,80240       217814,00000 -16278,20000  -3564,23000    217176,00000  1,95539      -1221,21000    293,46500     1255,98000    235581,00000  4643,59000    17750,40000   236294,00000 
               0,08032       1157,06000    270,72100    -1124,94000    1,80119       218143,00000 -16268,10000  -3567,48000    217506,00000  1,95419      -1220,35000    293,72700     1255,20000    235954,00000  4647,42000    17735,50000   236665,00000 
               0,08434       1156,24000    270,93900    -1124,05000    1,79993       218487,00000 -16257,60000  -3570,61000    217852,00000  1,95293      -1219,45000    293,98000     1254,39000    236343,00000  4651,13000    17719,80000   237052,00000 
               0,08835       1155,39000    271,14300    -1123,12000    1,79860       218845,00000 -16246,70000  -3573,59000    218212,00000  1,95162      -1218,52000    294,22000     1253,54000    236749,00000  4654,63000    17703,50000   237455,00000 
               0,09237       1154,50000    271,33200    -1122,16000    1,79723       219215,00000 -16235,50000  -3576,33000    218584,00000  1,95025      -1217,57000    294,44300     1252,66000    237168,00000  4657,87000    17686,70000   237872,00000 
               0,09638       1153,58000    271,49881    -1121,18000    1,79581       219596,00000 -16224,10000  -3578,79000    218967,00000  1,94884      -1216,58000    294,64400     1251,75000    237599,00000  4660,76000    17669,30000   238301,00000 
               0,10040       1152,64000    271,64000    -1120,17000    1,79434       219986,00000 -16212,50000  -3580,89000    219359,00000  1,94738      -1215,57000    294,81665     1250,81000    238041,00000  4663,23000    17651,40000   238740,00000 
               0,10442       1151,66000    271,75000    -1119,14000    1,79283       220384,00000 -16200,70000  -3582,57000    219759,00000  1,94588      -1214,53000    294,95700     1249,84000    238492,00000  4665,19000    17633,00000   239188,00000 
               0,10843       1150,66000    271,82400    -1118,09000    1,79128       220787,00000 -16188,70000  -3583,75000    220164,00000  1,94434      -1213,48000    295,05800     1248,84000    238949,00000  4666,57000    17614,20000   239643,00000 
               0,11245       1149,62000    271,85400    -1117,01000    1,78967       221192,00000 -16176,50000  -3584,33000    220570,00000  1,94273      -1212,40000    295,11100     1247,80000    239408,00000  4667,20000    17594,90000   240099,00000 
               0,11646       1148,65000    271,86100    -1116,02000    1,78818       221616,00000 -16165,60000  -3584,57000    220997,00000  1,94126      -1211,42000    295,14000     1246,85000    239890,00000  4667,49000    17576,80000   240578,00000 
               0,12048       1147,11000    271,68200    -1114,47000    1,78578       221932,00000 -16146,80000  -3582,34000    221315,00000  1,93879      -1209,82000    294,96700     1245,26000    240252,00000  4664,61000    17549,70000   240938,00000 
               0,12450       1148,34000    272,10800    -1115,63000    1,78771       222787,00000 -16167,40000  -3588,04000    222170,00000  1,94099      -1211,15000    295,44500     1246,67000    241194,00000  4672,06000    17564,80000   241878,00000 
               0,12851       1135,94000    269,24500    -1103,57000    1,76842       220992,00000 -15996,50000  -3550,34000    220384,00000  1,92063      -1198,43000    292,42600     1233,59000    239328,00000  4624,26000    17376,10000   240003,00000 
               0,13253       1080,38000    256,08670    -1049,59000    1,68193       210757,00000 -15217,60000  -3376,84000    210180,00000  1,82716      -1140,10000    278,20400     1173,55000    228305,00000  4399,35000    16526,10000   228945,00000 
               0,13654       1033,44000    244,90600    -1004,00000    1,60886       202142,00000 -14560,30000  -3229,38000    201591,00000  1,74783      -1090,60000    266,06300     1122,59000    218981,00000  4207,39000    15804,50000   219591,00000 
               0,14056       984,17700     233,11300    -956,17000     1,53218       193008,00000 -13870,10000  -3073,78000    192485,00000  1,66467      -1038,74000    253,27400     1069,18000    209109,00000  4005,23000    15048,90000   209688,00000 
               0,14458       936,00100     221,52200    -909,40900     1,45718       184022,00000 -13195,10000  -2920,83000    183525,00000  1,58327      -987,99000     240,69200     1016,89000    199386,00000  3806,37000    14309,60000   199935,00000 
               0,14859       887,85260     209,89100    -862,68500     1,38223       174976,00000 -12520,40000  -2767,32000    174506,00000  1,50188      -937,26600     228,06200     964,61500     189594,00000  3606,81000    13571,20000   190113,00000 
               0,15261       840,03000     198,30000    -816,28800     1,30778       165928,00000 -11850,10000  -2614,30000    165484,00000  1,42101      -886,87000     215,47000     912,67100     179795,00000  3407,86000    12837,80000   180285,00000 
               0,15663       792,42300     186,73200    -770,10700     1,23367       156859,00000 -11182,50000  -2461,58000    156440,00000  1,34047      -836,69000     202,89888     860,94100     169968,00000  3209,27000    12108,00000   170429,00000 
               0,16064       745,03900     175,20000    -724,14500     1,15990       147771,00000 -10517,80000  -2309,32000    147378,00000  1,26028      -786,73000     190,36300     809,43500     160117,00000  3011,25000    11381,70000   160549,00000 
               0,16466       697,84700     163,71000    -678,37207     1,08643       138662,00000 -9855,46000   -2157,60000    138294,00000  1,18038      -736,95900     177,86800     758,12100     150240,00000  2813,88000    10658,60000   150644,00000 
               0,16867       650,83200     152,26800    -632,76800     1,01323       129533,00000 -9195,18000   -2006,54000    129190,00000  1,10076      -687,35800     165,42300     706,98400     140338,00000  2617,29000    9938,33000    140713,00000 
               0,17269       603,95200     140,87800    -587,29100     0,94024       120379,00000 -8536,37000   -1856,16000    120061,00000  1,02134      -637,88200     153,03100     655,98200     130406,00000  2421,53000    9220,30000    130754,00000 
               0,17671       557,25400     129,56100    -541,98200     0,86753       111214,00000 -7879,63000   -1706,77000    110921,00000  0,94222      -588,58100     140,71700     605,16900     120460,00000  2226,99000    8505,22000    120781,00000 
               0,18072       510,41500     118,25500    -496,52700     0,79460       101979,00000 -7220,37000   -1557,54000    101712,00000  0,86284      -539,10900     128,41100     554,19220     110436,00000  2032,55000    7788,09000    110729,00000 
               0,18474       464,61900     107,24200    -452,07196     0,72329       92916,00000  -6575,28000   -1412,22000    92672,30000   0,78522      -490,72600     116,42600     504,34900     100598,00000  1843,14000    7087,10000    100864,00000 
               0,18875       415,03500     95,41970     -403,91700     0,64608       83063,20000  -5875,98000   -1256,28000    82845,60000   0,70118      -438,31400     103,55900     450,38200     89902,70000   1639,73000    6328,31000    90140,00000  
               0,19277       381,66900     87,38910     -371,52900     0,59413       76431,50000  -5405,84000   -1150,31000    76231,40000   0,64453      -403,00600     94,80640      414,00800     82692,00000   1501,41000    5816,93000    82909,90000  
               0,19679       387,58194     88,37400     -377,37200     0,60333       77652,50000  -5492,12000   -1163,02000    77449,30000   0,65438      -409,26600     95,85730      420,34200     83997,10000   1518,33000    5906,00000    84218,20000  
               0,20080       386,83900     87,83065     -376,73600     0,60216       77529,40000  -5484,04000   -1155,61000    77326,60000   0,65303      -408,52000     95,25560      419,47900     83852,50000   1509,09000    5893,95000    84072,90000  
               0,20482       387,89400     87,69280     -377,85100     0,60380       77756,90000  -5501,42000   -1153,54000    77553,40000   0,65471      -409,66700     95,09220      420,55900     84085,70000   1506,79000    5909,27000    84306,50000  
               0,20883       388,42900     87,43510     -378,46000     0,60463       77871,30000  -5511,37000   -1149,89000    77667,50000   0,65552      -410,26800     94,79995      421,07900     84197,50000   1502,45000    5916,78000    84418,50000  
               0,21285       389,07000     87,20153     -379,17200     0,60562       77999,10000  -5522,79000   -1146,55000    77794,90000   0,65648      -410,98400     94,53437      421,71700     84324,10000   1498,52000    5925,98000    84545,30000  
               0,21687       389,65100     86,95623     -379,82400     0,60652       78107,70000  -5533,29000   -1143,06000    77903,10000   0,65736      -411,63700     94,25670      422,29100     84430,30000   1494,41000    5934,32000    84651,80000  
               0,22088       390,21600     86,71096     -380,45900     0,60740       78206,70000  -5543,49000   -1139,58000    78001,60000   0,65820      -412,27300     93,97960      422,85000     84526,50000   1490,30000    5942,47000    84748,30000  
               0,22490       390,75200     86,46490     -381,06500     0,60823       78294,60000  -5553,22000   -1136,09000    78089,20000   0,65898      -412,88000     93,70220      423,38000     84611,30000   1486,18000    5950,24000    84833,30000  
               0,22891       391,26200     86,22040     -381,64400     0,60903       78372,80000  -5562,52000   -1132,62000    78167,00000   0,65973      -413,46000     93,42710      423,88500     84686,00000   1482,09000    5957,68000    84908,20000  
               0,23293       391,74700     85,97892     -382,19500     0,60978       78442,00000  -5571,37000   -1129,20000    78235,70000   0,66043      -414,01200     93,15580      424,36400     84751,30000   1478,05000    5964,76000    84973,80000  
               0,23695       392,20500     85,74200     -382,71800     0,61050       78502,80000  -5579,76000   -1125,85000    78296,20000   0,66110      -414,53600     92,89010      424,81700     84808,10000   1474,09000    5971,49000    85030,90000  
               0,24096       392,63800     85,51110     -383,21200     0,61117       78556,10000  -5587,70000   -1122,58000    78349,00000   0,66172      -415,03200     92,63150      425,24400     84857,20000   1470,24000    5977,85000    85080,20000  
               0,24498       393,04300     85,28770     -383,67800     0,61180       78602,40000  -5595,16000   -1119,42000    78395,00000   0,66230      -415,49800     92,38140      425,64500     84899,30000   1466,51000    5983,84000    85122,60000  
               0,24899       393,42200     85,07296     -384,11400     0,61239       78642,40000  -5602,16000   -1116,39000    78434,70000   0,66284      -415,93500     92,14140      426,01944     84935,20000   1462,93000    5989,46000    85158,60000  
               0,25301       393,77500     84,86820     -384,52000     0,61294       78676,80000  -5608,67000   -1113,50000    78468,80000   0,66334      -416,34200     91,91280      426,36700     84965,40000   1459,51000    5994,69000    85189,10000  
               0,25703       394,10100     84,67469     -384,89700     0,61345       78706,30000  -5614,71000   -1110,77000    78497,90000   0,66380      -416,72000     91,69690      426,69000     84990,80000   1456,29000    5999,55000    85214,70000  
               0,26104       394,39800     84,49280     -385,24100     0,61392       78730,80000  -5620,22000   -1108,20000    78522,10000   0,66422      -417,06427     91,49410      426,98300     85011,30000   1453,25000    6003,97000    85235,40000  
               0,26506       394,67800     84,32620     -385,56300     0,61435       78753,20000  -5625,38000   -1105,85000    78544,20000   0,66460      -417,38800     91,30840      427,25900     85030,10000   1450,48000    6008,15000    85254,40000  
               0,26908       394,89600     84,16640     -385,82200     0,61470       78765,20000  -5629,56000   -1103,60000    78556,00000   0,66489      -417,64505     91,13070      427,47200     85038,30000   1447,81000    6011,42000    85262,80000  
               0,27309       395,21000     84,04780     -386,16900     0,61519       78798,80000  -5635,00000   -1101,91000    78589,30000   0,66535      -418,00000     90,99800      427,79100     85070,10000   1445,85000    6016,15000    85294,80000  
               0,27711       395,05500     83,85070     -386,05300     0,61495       78741,40000  -5633,61000   -1099,20000    78531,90000   0,66502      -417,85800     90,78100      427,60600     85004,50000   1442,53000    6013,76000    85229,20000  
               0,28112       396,46800     84,00900     -387,46500     0,61716       78999,80000  -5654,50000   -1101,17000    78789,50000   0,66733      -419,37100     90,94930      429,12000     85280,20000   1445,31000    6035,25000    85505,70000  
               0,28514       392,07700     82,95810     -383,20000     0,61032       78104,80000  -5592,44000   -1087,31000    77896,70000   0,65985      -414,73000     89,80680      424,34300     84309,20000   1427,24000    5968,20000    84532,20000  
               0,28915       412,91600     87,27780     -403,58600     0,64278       82240,30000  -5890,31000   -1143,86000    82021,10000   0,69505      -436,88089     94,50110      446,98500     88790,50000   1501,90000    6286,91000    89025,50000  
               0,29317       465,65800     98,36490     -455,14900     0,72493       92732,80000  -6643,42000   -1289,12000    92485,50000   0,78412      -492,86615     106,54000     504,25000     100152,00000  1693,27000    7092,77000    100418,00000 
               0,29719       512,12400     108,13000    -500,57800     0,79731       101976,00000 -7306,93000   -1417,06000    101704,00000  0,86257      -542,18200     117,14200     554,69300     110160,00000  1861,79000    7802,61000    110452,00000 
               0,30120       560,22800     118,25300    -547,60500     0,87223       111548,00000 -7993,76000   -1549,69000    111250,00000  0,94380      -593,24300     128,13400     606,92400     120525,00000  2036,50000    8537,62000    120844,00000 
               0,30522       607,62100     128,23700    -593,93500     0,94606       120980,00000 -8670,40000   -1680,51000    120657,00000  1,02383      -643,55100     138,97600     658,38600     130739,00000  2208,81000    9261,79000    131086,00000 
               0,30923       655,95500     138,43100    -641,18100     1,02134       130601,00000 -9360,39000   -1814,10000    130252,00000  1,10544      -694,85700     150,04700     710,87400     141160,00000  2384,76000    10000,40000   141533,00000 
               0,31325       700,97290     147,93483    -685,18400     1,09147       139564,00000 -10003,00000  -1938,64000    139191,00000  1,18145      -742,64500     160,36900     759,76400     150867,00000  2548,79000    10688,30000   151267,00000 
               0,31727       758,06800     159,99800    -740,99000     1,18040       150932,00000 -10818,00000  -2096,73000    150530,00000  1,27786      -803,25500     173,47100     821,77400     163182,00000  2757,00000    11560,90000   163614,00000 
               0,32128       758,06800     159,99800    -740,99000     1,18041       150932,00000 -10818,00000  -2096,73000    150530,00000  1,27780      -803,25500     173,47100     821,77400     163182,00000  2756,99000    11560,90000   163614,00000 
               0,32530       700,97290     147,93483    -685,18400     1,09150       139564,00000 -10003,00000  -1938,64000    139191,00000  1,18126      -742,64500     160,36900     759,76400     150867,00000  2548,75000    10688,30000   151267,00000 
               0,32932       655,95500     138,43100    -641,18100     1,02139       130601,00000 -9360,39000   -1814,09000    130252,00000  1,10514      -694,85700     150,04700     710,87400     141160,00000  2384,71000    10000,40000   141533,00000 
               0,33333       607,62100     128,23700    -593,93500     0,94612       120980,00000 -8670,40000   -1680,50000    120657,00000  1,02343      -643,55100     138,97600     658,38600     130739,00000  2208,74000    9261,81000    131086,00000 
               0,33735       560,22800     118,25300    -547,60500     0,87231       111548,00000 -7993,77000   -1549,67000    111250,00000  0,94332      -593,24300     128,13400     606,92400     120525,00000  2036,41000    8537,65000    120844,00000 
               0,34136       512,12400     108,13000    -500,57800     0,79739       101976,00000 -7306,94000   -1417,04000    101704,00000  0,86202      -542,18100     117,14200     554,69300     110160,00000  1861,69000    7802,65000    110452,00000 
               0,34538       465,65800     98,36490     -455,14900     0,72502       92732,80000  -6643,43000   -1289,10000    92485,50000   0,78351      -492,86615     106,54000     504,25000     100152,00000  1693,15000    7092,81000    100418,00000 
               0,34940       412,91600     87,27780     -403,58600     0,64288       82240,30000  -5890,32000   -1143,84000    82021,10000   0,69440      -436,88089     94,50110      446,98500     88790,50000   1501,78000    6286,95000    89025,50000  
               0,35341       392,07700     82,95810     -383,20000     0,61043       78104,80000  -5592,45000   -1087,29000    77896,70000   0,65914      -414,73000     89,80690      424,34300     84309,20000   1427,11000    5968,24000    84532,20000  
               0,35743       396,46800     84,00900     -387,46500     0,61728       78999,80000  -5654,51000   -1101,15000    78789,50000   0,66653      -419,37100     90,94931      429,12000     85280,20000   1445,15000    6035,30000    85505,70000  
               0,36144       395,05500     83,85070     -386,05300     0,61508       78741,40000  -5633,62000   -1099,18000    78531,90000   0,66414      -417,85800     90,78110      427,60600     85004,50000   1442,36000    6013,81000    85229,20000  
               0,36546       395,21000     84,04780     -386,16900     0,61533       78798,80000  -5635,00000   -1101,88000    78589,30000   0,66439      -418,00000     90,99800      427,79100     85070,10000   1445,67000    6016,21000    85294,80000  
               0,36948       394,89600     84,16640     -385,82200     0,61485       78765,20000  -5629,57000   -1103,57000    78556,00000   0,66385      -417,64502     91,13070      427,47200     85038,30000   1447,62000    6011,48000    85262,80000  
               0,37349       394,67800     84,32620     -385,56300     0,61452       78753,20000  -5625,39000   -1105,82000    78544,20000   0,66348      -417,38800     91,30850      427,25900     85030,10000   1450,27000    6008,22000    85254,40000  
               0,37751       394,39800     84,49280     -385,24100     0,61409       78730,80000  -5620,23000   -1108,17000    78522,10000   0,66302      -417,06427     91,49420      426,98300     85011,30000   1453,03000    6004,05000    85235,50000  
               0,38152       394,10100     84,67469     -384,89700     0,61364       78706,30000  -5614,72000   -1110,73000    78497,90000   0,66253      -416,72000     91,69690      426,69000     84990,80000   1456,04000    5999,62000    85214,70000  
               0,38554       393,77500     84,86820     -384,52000     0,61314       78676,80000  -5608,68000   -1113,46000    78468,80000   0,66199      -416,34200     91,91280      426,36700     84965,40000   1459,25000    5994,77000    85189,10000  
               0,38956       393,42200     85,07296     -384,11400     0,61260       78642,40000  -5602,17000   -1116,35000    78434,70000   0,66142      -415,93500     92,14150      426,01944     84935,20000   1462,65000    5989,54000    85158,60000  
               0,39357       393,04300     85,28770     -383,67800     0,61202       78602,40000  -5595,18000   -1119,38000    78395,00000   0,66081      -415,49800     92,38150      425,64500     84899,30000   1466,22000    5983,92000    85122,60000  
               0,39759       392,63800     85,51110     -383,21200     0,61140       78556,10000  -5587,71000   -1122,54000    78349,00000   0,66015      -415,03186     92,63150      425,24400     84857,20000   1469,94000    5977,94000    85080,20000  
               0,40160       392,20500     85,74200     -382,71800     0,61074       78502,80000  -5579,78000   -1125,80000    78296,20000   0,65946      -414,53600     92,89010      424,81700     84808,10000   1473,78000    5971,58000    85030,90000  
               0,40562       391,74700     85,97892     -382,19500     0,61003       78442,00000  -5571,38000   -1129,15000    78235,70000   0,65873      -414,01200     93,15590      424,36400     84751,30000   1477,72000    5964,85000    84973,80000  
               0,40964       391,26200     86,22040     -381,64400     0,60929       78372,80000  -5562,53000   -1132,57000    78167,00000   0,65796      -413,46000     93,42720      423,88500     84686,00000   1481,75000    5957,77000    84908,20000  
               0,41365       390,75200     86,46490     -381,06500     0,60851       78294,60000  -5553,23000   -1136,03000    78089,20000   0,65716      -412,88000     93,70230      423,38000     84611,30000   1485,83000    5950,33000    84833,30000  
               0,41767       390,21600     86,71096     -380,45900     0,60768       78206,70000  -5543,50000   -1139,52000    78001,60000   0,65631      -412,27300     93,97960      422,85000     84526,50000   1489,94000    5942,56000    84748,30000  
               0,42168       389,65100     86,95620     -379,82400     0,60681       78107,70000  -5533,30000   -1143,01000    77903,10000   0,65543      -411,63700     94,25670      422,29100     84430,30000   1494,04000    5934,41000    84651,80000  
               0,42570       389,07000     87,20150     -379,17200     0,60592       77999,10000  -5522,80000   -1146,49000    77794,90000   0,65454      -410,98410     94,53440      421,71700     84324,10000   1498,15000    5926,07000    84545,30000  
               0,42972       388,42900     87,43510     -378,46000     0,60493       77871,30000  -5511,38000   -1149,83000    77667,50000   0,65350      -410,26800     94,80000      421,07900     84197,50000   1502,05000    5916,87000    84418,50000  
               0,43373       387,89400     87,69280     -377,85100     0,60411       77756,90000  -5501,43000   -1153,48000    77553,40000   0,65273      -409,66700     95,09220      420,55900     84085,70000   1506,40000    5909,36000    84306,50000  
               0,43775       386,83900     87,83065     -376,73600     0,60248       77529,40000  -5484,06000   -1155,55000    77326,60000   0,65110      -408,52000     95,25560      419,47900     83852,50000   1508,71000    5894,03000    84072,90000  
               0,44177       387,58194     88,37400     -377,37200     0,60364       77652,50000  -5492,14000   -1162,96000    77449,30000   0,65247      -409,26600     95,85730      420,34200     83997,10000   1517,96000    5906,07000    84218,20000  
               0,44578       381,66900     87,38910     -371,52900     0,59444       76431,50000  -5405,85000   -1150,25000    76231,40000   0,64266      -403,00600     94,80640      414,00800     82692,00000   1501,04000    5817,00000    82909,90000  
               0,44980       415,03500     95,41970     -403,91700     0,64643       83063,20000  -5875,99000   -1256,22000    82845,60000   0,69917      -438,31400     103,55900     450,38200     89902,70000   1639,33000    6328,37000    90140,00000  
               0,45381       464,61900     107,24200    -452,07200     0,72369       92916,00000  -6575,29000   -1412,14000    92672,30000   0,78300      -490,72600     116,42600     504,34900     100598,00000  1842,70000    7087,17000    100864,00000 
               0,45783       510,41500     118,25500    -496,52700     0,79505       101979,00000 -7220,38000   -1557,46000    101712,00000  0,86040      -539,10900     128,41100     554,19220     110436,00000  2032,07000    7788,16000    110729,00000 
               0,46185       557,25400     129,56100    -541,98200     0,86803       111214,00000 -7879,64000   -1706,67000    110921,00000  0,93956      -588,58100     140,71700     605,16900     120460,00000  2226,46000    8505,29000    120781,00000 
               0,46586       603,95200     140,87800    -587,29100     0,94079       120379,00000 -8536,39000   -1856,05000    120061,00000  1,01845      -637,88200     153,03100     655,98200     130406,00000  2420,96000    9220,37000    130754,00000 
               0,46988       650,83200     152,26800    -632,76800     1,01384       129533,00000 -9195,20000   -2006,42000    129190,00000  1,09762      -687,35800     165,42276     706,98400     140338,00000  2616,67000    9938,40000    140713,00000 
               0,47389       697,84700     163,71000    -678,37207     1,08710       138662,00000 -9855,47000   -2157,47000    138294,00000  1,17699      -736,95900     177,86800     758,12100     150240,00000  2813,20000    10658,70000   150644,00000 
               0,47791       745,03900     175,20000    -724,14500     1,16064       147771,00000 -10517,80000  -2309,17000    147378,00000  1,25661      -786,73000     190,36300     809,43400     160117,00000  3010,52000    11381,80000   160549,00000 
               0,48192       792,42300     186,73200    -770,10675     1,23448       156859,00000 -11182,50000  -2461,41000    156440,00000  1,33653      -836,69000     202,89900     860,94100     169968,00000  3208,49000    12108,00000   170429,00000 
               0,48594       840,03000     198,30000    -816,28833     1,30867       165928,00000 -11850,10000  -2614,12000    165484,00000  1,41677      -886,87000     215,47000     912,67100     179795,00000  3407,02000    12837,90000   180285,00000 
               0,48996       887,85300     209,89100    -862,68500     1,38320       174976,00000 -12520,40000  -2767,12000    174506,00000  1,49733      -937,26600     228,06300     964,61500     189594,00000  3605,90000    13571,20000   190113,00000 
               0,49397       936,00100     221,52200    -909,40900     1,45824       184022,00000 -13195,10000  -2920,62000    183526,00000  1,57839      -987,99000     240,69200     1016,89000    199386,00000  3805,40000    14309,70000   199935,00000 
               0,49799       984,17700     233,11300    -956,17000     1,53332       193008,00000 -13870,10000  -3073,55000    192485,00000  1,65946      -1038,74000    253,27400     1069,18000    209109,00000  4004,19000    15048,90000   209688,00000 
               0,50201       1033,44000    244,90600    -1004,00000    1,61011       202142,00000 -14560,30000  -3229,13000    201591,00000  1,74225      -1090,60000    266,06300     1122,59000    218981,00000  4206,28000    15804,50000   219591,00000 
               0,50602       1080,38000    256,08700    -1049,59000    1,68327       210757,00000 -15217,60000  -3376,57000    210180,00000  1,82122      -1140,10000    278,20400     1173,55000    228305,00000  4398,16000    16526,10000   228945,00000 
               0,51004       1135,94000    269,24500    -1103,57000    1,76988       220992,00000 -15996,40000  -3550,05000    220384,00000  1,91428      -1198,43000    292,42600     1233,59000    239328,00000  4622,99000    17376,10000   240003,00000 
               0,51405       1148,34000    272,10800    -1115,63000    1,78922       222787,00000 -16167,40000  -3587,74000    222170,00000  1,93448      -1211,15000    295,44500     1246,67000    241194,00000  4670,76000    17564,80000   241878,00000 
               0,51807       1147,11000    271,68200    -1114,47000    1,78734       221932,00000 -16146,80000  -3582,03000    221315,00000  1,93218      -1209,82000    294,96700     1245,26000    240252,00000  4663,29000    17549,60000   240937,00000 
               0,52209       1148,65000    271,86100    -1116,02000    1,78979       221616,00000 -16165,50000  -3584,25000    220997,00000  1,93451      -1211,42000    295,14100     1246,85000    239890,00000  4666,14000    17576,70000   240578,00000 
               0,52610       1149,62000    271,85400    -1117,01000    1,79133       221192,00000 -16176,50000  -3584,00000    220570,00000  1,93586      -1212,40000    295,11100     1247,80000    239408,00000  4665,83000    17594,80000   240099,00000 
               0,53012       1150,66000    271,82400    -1118,09000    1,79299       220787,00000 -16188,70000  -3583,41000    220164,00000  1,93734      -1213,48000    295,05800     1248,84000    238949,00000  4665,17000    17614,20000   239643,00000 
               0,53413       1151,66000    271,75000    -1119,14000    1,79460       220384,00000 -16200,60000  -3582,22000    219759,00000  1,93874      -1214,53000    294,95700     1249,84000    238492,00000  4663,77000    17632,90000   239188,00000 
               0,53815       1152,64000    271,64000    -1120,17000    1,79616       219986,00000 -16212,40000  -3580,53000    219359,00000  1,94011      -1215,57000    294,81700     1250,81000    238041,00000  4661,78000    17651,20000   238740,00000 
               0,54217       1153,58000    271,49884    -1121,18000    1,79769       219596,00000 -16224,10000  -3578,41000    218967,00000  1,94142      -1216,58000    294,64400     1251,75000    237599,00000  4659,28000    17669,10000   238301,00000 
               0,54618       1154,50000    271,33200    -1122,16000    1,79916       219215,00000 -16235,50000  -3575,95000    218584,00000  1,94268      -1217,57000    294,44300     1252,66000    237168,00000  4656,36000    17686,50000   237872,00000 
               0,55020       1155,39000    271,14300    -1123,12000    1,80060       218845,00000 -16246,70000  -3573,19000    218212,00000  1,94389      -1218,52000    294,22000     1253,54000    236749,00000  4653,10000    17703,40000   237455,00000 
               0,55421       1156,24000    270,93900    -1124,05000    1,80198       218487,00000 -16257,50000  -3570,21000    217852,00000  1,94504      -1219,45000    293,97995     1254,39000    236343,00000  4649,56000    17719,60000   237052,00000 
               0,55823       1157,06000    270,72100    -1124,94000    1,80331       218143,00000 -16268,00000  -3567,06000    217506,00000  1,94613      -1220,35000    293,72700     1255,20000    235954,00000  4645,83000    17735,30000   236665,00000 
               0,56225       1157,84000    270,49600    -1125,80000    1,80458       217814,00000 -16278,20000  -3563,80000    217176,00000  1,94716      -1221,21000    293,46600     1255,98000    235581,00000  4641,96000    17750,20000   236294,00000 
               0,56626       1158,58000    270,26600    -1126,62000    1,80580       217501,00000 -16287,90000  -3560,49000    216861,00000  1,94812      -1222,03000    293,20000     1256,71000    235227,00000  4638,02000    17764,40000   235942,00000 
               0,57028       1159,29000    270,03500    -1127,40000    1,80695       217205,00000 -16297,10000  -3557,17000    216564,00000  1,94901      -1222,81000    292,93500     1257,41000    234892,00000  4634,09000    17777,90000   235609,00000 
               0,57429       1159,94000    269,80800    -1128,13000    1,80804       216927,00000 -16305,80000  -3553,91000    216284,00000  1,94983      -1223,54000    292,67400     1258,06000    234577,00000  4630,20000    17790,50000   235296,00000 
               0,57831       1160,56000    269,58600    -1128,81000    1,80907       216669,00000 -16314,00000  -3550,72000    216024,00000  1,95058      -1224,23000    292,42000     1258,67000    234284,00000  4626,41000    17802,30000   235005,00000 
               0,58233       1161,13000    269,37300    -1129,45000    1,81002       216430,00000 -16321,60000  -3547,68000    215785,00000  1,95125      -1224,86000    292,17800     1259,23000    234014,00000  4622,79000    17813,30000   234737,00000 
               0,58634       1161,64000    269,17160    -1130,02000    1,81089       216211,00000 -16328,60000  -3544,79000    215565,00000  1,95183      -1225,44000    291,94800     1259,74000    233766,00000  4619,35000    17823,20000   234490,00000 
               0,59036       1162,12000    268,98800    -1130,56000    1,81172       216017,00000 -16335,10000  -3542,16000    215369,00000  1,95235      -1225,98000    291,73900     1260,22000    233546,00000  4616,21000    17832,40000   234271,00000 
               0,59437       1162,50000    268,80700    -1130,99000    1,81238       215833,00000 -16340,10000  -3539,58000    215185,00000  1,95269      -1226,41000    291,53400     1260,58000    233339,00000  4613,13000    17839,80000   234065,00000 
               0,59839       1163,02000    268,69223    -1131,56000    1,81327       215710,00000 -16347,30000  -3537,89000    215060,00000  1,95328      -1226,98000    291,40033     1261,11000    233197,00000  4611,14000    17849,20000   233924,00000 
               0,60241       1162,77000    268,43200    -1131,36000    1,81296       215476,00000 -16343,70000  -3534,31000    214826,00000  1,95261      -1226,76000    291,11500     1260,83000    232940,00000  4606,72000    17846,80000   233668,00000 
               0,60642       1165,02000    268,78100    -1133,59000    1,81655       215737,00000 -16375,20000  -3538,77000    215086,00000  1,95603      -1229,10000    291,47700     1263,19000    233208,00000  4612,53000    17881,60000   233938,00000 
               0,61044       1117,96000    257,79900    -1087,83000    1,74324       206905,00000 -15713,50000  -3394,08000    206280,00000  1,87679      -1179,48000    279,56500     1212,16000    223658,00000  4424,08000    17160,10000   224359,00000 
               0,61445       1067,74000    246,12822    -1038,98000    1,66500       197525,00000 -15007,50000  -3240,36000    196928,00000  1,79240      -1126,59000    266,92700     1157,78000    213534,00000  4224,11000    16390,90000   214203,00000 
               0,61847       1018,36000    234,68500    -990,94600     1,58807       188332,00000 -14313,20000  -3089,65000    187762,00000  1,70940      -1074,56000    254,53100     1104,30000    203606,00000  4027,94000    15634,10000   204245,00000 
               0,62249       968,81400     223,23000    -942,74400     1,51087       179131,00000 -13616,70000  -2938,81000    178589,00000  1,62614      -1022,36000    242,12200     1050,64000    193671,00000  3831,56000    14874,60000   194279,00000 
               0,62650       919,38700     211,82200    -894,65100     1,43385       169970,00000 -12921,80000  -2788,59000    169455,00000  1,54309      -970,26500     229,76200     997,09900     183777,00000  3635,94000    14116,60000   184354,00000 
               0,63052       870,01700     200,44000    -846,61200     1,35691       160831,00000 -12227,80000  -2638,73000    160344,00000  1,46015      -918,22300     217,43000     943,61600     173907,00000  3440,74000    13359,30000   174453,00000 
               0,63453       820,72998     189,08500    -798,65100     1,28010       151715,00000 -11534,90000  -2489,24000    151256,00000  1,37737      -866,26000     205,12500     890,21700     164060,00000  3246,00000    12603,10000   164576,00000 
               0,63855       771,52900     177,75400    -750,77240     1,20341       142618,00000 -10843,20000  -2340,07000    142186,00000  1,29473      -814,38100     192,84500     836,90300     154233,00000  3051,63000    11848,20000   154718,00000 
